*RAS_DATA_START
*RAS_HEADER_START
*DISP_FMT_X "%.2f"
*DISP_FMT_Y "%.0f"
*DISP_FULLSCALE "5580.0000000000"
*DISP_LINE_COLOR "255.0000000000"
*DISP_LINE_STYLE "0.0000000000"
*DISP_LINE_WIDTH "0.2500000000"
*DISP_NOTE "測定データ-4"
*DISP_OFFSET_Y "0.0000000000"
*DISP_PEAKSEARCH_UNIT_Y "cps"
*DISP_RANGE_BOTTOM "0.0000000000"
*DISP_RANGE_LEFT "10.0000000000"
*DISP_RANGE_LOGCUTOFF "0.0100000000"
*DISP_RANGE_RIGHT "70.0000000000"
*DISP_RANGE_TOP "5580.0000000000"
*DISP_SCALE_MODE_Y "0.0000000000"
*DISP_TAB_NAME "2θ/θ"
*DISP_TITLE_Y "強度"
*DISP_UNIT_Y "cps"
*DISP_WINDOW_NAME "MSG_MACROENGINE"
*FILE_COMMENT " "
*FILE_MD5 ""
*FILE_MEMO " "
*FILE_OPERATOR "Administrator"
*FILE_SAMPLE " "
*FILE_TYPE "RAS_RAW"
*FILE_USERGROUP "システムマネージャ"
*FILE_VERSION "1.0000000000"
*HW_ATTACHMENT_ID "ATT1025"
*HW_ATTACHMENT_NAME "標準試料台|Standard Sample Holder"
*HW_COUNTER_ID-0 "CUT0021"
*HW_COUNTER_ID-1 "CUT0020"
*HW_COUNTER_ID-2 "CUT0020"
*HW_COUNTER_ID-3 "CMC0021"
*HW_COUNTER_NAME-0 "SC-70|SC-70"
*HW_COUNTER_NAME-1 "None|None"
*HW_COUNTER_NAME-2 "None|None"
*HW_COUNTER_NAME-3 "検出器モノクロメータ|Detector monochromator"
*HW_COUNTER_SELECT_NAME "SC-70|SC-70"
*HW_ECP_HV "641.5000000000"
*HW_ECP_HV_UNIT "V"
*HW_GONIOMETER_ID "GON0070"
*HW_GONIOMETER_NAME "MiniFlex 300/600|MiniFlex 300/600"
*HW_GONIOMETER_RADIUS-0 "79.0"
*HW_GONIOMETER_RADIUS-1 "91.5"
*HW_GONIOMETER_RADIUS-2 "150.0"
*HW_GONIOMETER_RADIUS-3 "0"
*HW_GONIOMETER_RADIUS-4 "103.4"
*HW_GONIOMETER_RADIUS-5 "150.0"
*HW_GONIOMETER_RADIUS-6 "46.6"
*HW_GONIOMETER_RADIUS-7 "160.0"
*HW_I_OPT_ID-0 "ISL0021"
*HW_I_OPT_ID-1 "ISO0021"
*HW_I_OPT_NAME-0 "発散スリット|Divergence slit"
*HW_I_OPT_NAME-1 "入射平行スリット|Incident parallel slit"
*HW_R_ATTENUATER_AUTOMODE "0"
*HW_R_OPT_ID-0 "RSS0021"
*HW_R_OPT_ID-1 "RSO0021"
*HW_R_OPT_ID-2 "RRS0021"
*HW_R_OPT_NAME-0 "散乱スリット|Scattering slit"
*HW_R_OPT_NAME-1 "受光平行スリット|Receiving soller slit"
*HW_R_OPT_NAME-2 "受光スリット|Receiving slit"
*HW_SAMPLE_HOLDER_ID "SMP0000"
*HW_SAMPLE_HOLDER_NAME "無し|None"
*HW_XG_CURRENT_MAX "15"
*HW_XG_CURRENT_MIN "2"
*HW_XG_CURRENT_RESOLUTION "1"
*HW_XG_CURRENT_UNIT "mA"
*HW_XG_FOCUS "1mm x 10mm"
*HW_XG_FOCUS_TYPE "Normal"
*HW_XG_ID ""
*HW_XG_NAME "300W/600W 封入管-A|300W/600W Sealed tube-A"
*HW_XG_TARGET_ATOMIC_NUMBER "29.0000000000"
*HW_XG_TARGET_NAME "Cu"
*HW_XG_TYPE "Hermetic"
*HW_XG_VOLTAGE_MAX "40"
*HW_XG_VOLTAGE_MIN "20"
*HW_XG_VOLTAGE_RESOLUTION "1"
*HW_XG_VOLTAGE_UNIT "kV"
*HW_XG_WATT_MAX "1"
*HW_XG_WATT_UNIT "kW"
*HW_XG_WAVE_LENGTH_ALPHA1 "1.540593"
*HW_XG_WAVE_LENGTH_ALPHA2 "1.544414"
*HW_XG_WAVE_LENGTH_BETA "1.392250"
*MEAS_COND_AXIS_NAME-0 "2θ/θ"
*MEAS_COND_AXIS_NAME-1 "Soller(inc.)"
*MEAS_COND_AXIS_NAME-2 "IHS"
*MEAS_COND_AXIS_NAME-3 "DS"
*MEAS_COND_AXIS_NAME-4 "SS"
*MEAS_COND_AXIS_NAME-5 "Soller(rec.)"
*MEAS_COND_AXIS_NAME-6 "RS"
*MEAS_COND_AXIS_NAME-7 "フィルター"
*MEAS_COND_AXIS_NAME-8 "モノクロメータ"
*MEAS_COND_AXIS_NAME-9 "HV"
*MEAS_COND_AXIS_NAME-10 "PHA"
*MEAS_COND_AXIS_NAME_INTERNAL-0 "TwoThetaTheta"
*MEAS_COND_AXIS_NAME_INTERNAL-1 "IncidentSollerSlit"
*MEAS_COND_AXIS_NAME_INTERNAL-2 "IncidentAxdSlit"
*MEAS_COND_AXIS_NAME_INTERNAL-3 "IncidentSlitBox"
*MEAS_COND_AXIS_NAME_INTERNAL-4 "ReceivingSlitBox1"
*MEAS_COND_AXIS_NAME_INTERNAL-5 "ReceivingSollerSlit"
*MEAS_COND_AXIS_NAME_INTERNAL-6 "ReceivingSlitBox2"
*MEAS_COND_AXIS_NAME_INTERNAL-7 "Filter"
*MEAS_COND_AXIS_NAME_INTERNAL-8 "CounterMonochromator"
*MEAS_COND_AXIS_NAME_INTERNAL-9 "HV"
*MEAS_COND_AXIS_NAME_INTERNAL-10 "PHA"
*MEAS_COND_AXIS_NAME_MAGICNO-0 "268632064.0000000000"
*MEAS_COND_AXIS_NAME_MAGICNO-1 "20971521.0000000000"
*MEAS_COND_AXIS_NAME_MAGICNO-2 "22020097.0000000000"
*MEAS_COND_AXIS_NAME_MAGICNO-3 "22020097.0000000000"
*MEAS_COND_AXIS_NAME_MAGICNO-4 "23068673.0000000000"
*MEAS_COND_AXIS_NAME_MAGICNO-5 "20971521.0000000000"
*MEAS_COND_AXIS_NAME_MAGICNO-6 "23068673.0000000000"
*MEAS_COND_AXIS_NAME_MAGICNO-7 "20971521.0000000000"
*MEAS_COND_AXIS_NAME_MAGICNO-8 "20971521.0000000000"
*MEAS_COND_AXIS_NAME_MAGICNO-9 "0.0000000000"
*MEAS_COND_AXIS_NAME_MAGICNO-10 "0.0000000000"
*MEAS_COND_AXIS_OFFSET-0 "0.0000000000"
*MEAS_COND_AXIS_OFFSET-1 "-"
*MEAS_COND_AXIS_OFFSET-2 "-"
*MEAS_COND_AXIS_OFFSET-3 "-"
*MEAS_COND_AXIS_OFFSET-4 "-"
*MEAS_COND_AXIS_OFFSET-5 "-"
*MEAS_COND_AXIS_OFFSET-6 "-"
*MEAS_COND_AXIS_OFFSET-7 "-"
*MEAS_COND_AXIS_OFFSET-8 "-"
*MEAS_COND_AXIS_OFFSET-9 "-"
*MEAS_COND_AXIS_OFFSET-10 "-"
*MEAS_COND_AXIS_POSITION-0 "10.0000000000"
*MEAS_COND_AXIS_POSITION-1 "5.0deg"
*MEAS_COND_AXIS_POSITION-2 "10.0mm"
*MEAS_COND_AXIS_POSITION-3 "1.250deg"
*MEAS_COND_AXIS_POSITION-4 "1.250deg"
*MEAS_COND_AXIS_POSITION-5 "5.0deg"
*MEAS_COND_AXIS_POSITION-6 "0.3mm"
*MEAS_COND_AXIS_POSITION-7 "None"
*MEAS_COND_AXIS_POSITION-8 "Bent"
*MEAS_COND_AXIS_POSITION-9 "641.5000000000"
*MEAS_COND_AXIS_POSITION-10 "566.2500000000"
*MEAS_COND_AXIS_UNIT-0 "deg"
*MEAS_COND_AXIS_UNIT-1 ""
*MEAS_COND_AXIS_UNIT-2 ""
*MEAS_COND_AXIS_UNIT-3 ""
*MEAS_COND_AXIS_UNIT-4 ""
*MEAS_COND_AXIS_UNIT-5 ""
*MEAS_COND_AXIS_UNIT-6 ""
*MEAS_COND_AXIS_UNIT-7 ""
*MEAS_COND_AXIS_UNIT-8 ""
*MEAS_COND_AXIS_UNIT-9 "V"
*MEAS_COND_AXIS_UNIT-10 "mV"
*MEAS_COND_COUNTER_CNTLOSS_CORR "0.0000000000"
*MEAS_COND_COUNTER_PHABASE "566.2500000000"
*MEAS_COND_COUNTER_PHAWINDOW "878.7500000000"
*MEAS_COND_COUNTER_PHA_UNIT "mV"
*MEAS_COND_COUNTER_TAUDIFF "0.2500000000"
*MEAS_COND_COUNTER_TAUINT "0.7500000000"
*MEAS_COND_IRRADIATION_MODE "OFF"
*MEAS_COND_IRRADIATION_WIDTH ""
*MEAS_COND_OPT_ATTR " "
*MEAS_COND_OPT_NAME ""
*MEAS_COND_UNSYMMETRIC_MODE "OFF"
*MEAS_COND_XG_CURRENT "15.0000000000"
*MEAS_COND_XG_VOLTAGE "40.0000000000"
*MEAS_COND_XG_WAVE_TYPE "Ka"
*MEAS_DATA_COUNT "3001.0000000000"
*MEAS_SCAN_AXIS_X "2θ/θ"
*MEAS_SCAN_AXIS_X_INTERNAL "TwoThetaTheta"
*MEAS_SCAN_END_TIME "08/05/19 18:53:03"
*MEAS_SCAN_MODE "CONTINUOUS"
*MEAS_SCAN_MONITOR "0"
*MEAS_SCAN_RESOLUTION_X "0.0025"
*MEAS_SCAN_SPEED "3.0000"
*MEAS_SCAN_SPEED_UNIT "deg/min"
*MEAS_SCAN_START "10.0000000000"
*MEAS_SCAN_START_TIME "08/05/19 18:32:54"
*MEAS_SCAN_STEP "0.0200000000"
*MEAS_SCAN_STOP "70.0000000000"
*MEAS_SCAN_UNIT_X "deg"
*MEAS_SCAN_UNIT_Y "counts"
*SLIT_SYSTEM "0"
*RAS_HEADER_END
*RAS_INT_START
10.0000 17.0000 1.0000
10.0200 17.0000 1.0000
10.0400 18.0000 1.0000
10.0600 21.0000 1.0000
10.0800 19.0000 1.0000
10.1000 17.0000 1.0000
10.1200 22.0000 1.0000
10.1400 20.0000 1.0000
10.1600 18.0000 1.0000
10.1800 21.0000 1.0000
10.2000 20.0000 1.0000
10.2200 20.0000 1.0000
10.2400 15.0000 1.0000
10.2600 22.0000 1.0000
10.2800 20.0000 1.0000
10.3000 22.0000 1.0000
10.3200 23.0000 1.0000
10.3400 19.0000 1.0000
10.3600 25.0000 1.0000
10.3800 19.0000 1.0000
10.4000 20.0000 1.0000
10.4200 20.0000 1.0000
10.4400 20.0000 1.0000
10.4600 23.0000 1.0000
10.4800 20.0000 1.0000
10.5000 13.0000 1.0000
10.5200 19.0000 1.0000
10.5400 18.0000 1.0000
10.5600 21.0000 1.0000
10.5800 14.0000 1.0000
10.6000 15.0000 1.0000
10.6200 20.0000 1.0000
10.6400 26.0000 1.0000
10.6600 18.0000 1.0000
10.6800 13.0000 1.0000
10.7000 11.0000 1.0000
10.7200 18.0000 1.0000
10.7400 22.0000 1.0000
10.7600 21.0000 1.0000
10.7800 14.0000 1.0000
10.8000 29.0000 1.0000
10.8200 22.0000 1.0000
10.8400 19.0000 1.0000
10.8600 17.0000 1.0000
10.8800 29.0000 1.0000
10.9000 16.0000 1.0000
10.9200 15.0000 1.0000
10.9400 18.0000 1.0000
10.9600 23.0000 1.0000
10.9800 27.0000 1.0000
11.0000 18.0000 1.0000
11.0200 21.0000 1.0000
11.0400 20.0000 1.0000
11.0600 19.0000 1.0000
11.0800 21.0000 1.0000
11.1000 16.0000 1.0000
11.1200 15.0000 1.0000
11.1400 16.0000 1.0000
11.1600 21.0000 1.0000
11.1800 20.0000 1.0000
11.2000 14.0000 1.0000
11.2200 19.0000 1.0000
11.2400 20.0000 1.0000
11.2600 25.0000 1.0000
11.2800 26.0000 1.0000
11.3000 22.0000 1.0000
11.3200 11.0000 1.0000
11.3400 24.0000 1.0000
11.3600 15.0000 1.0000
11.3800 21.0000 1.0000
11.4000 21.0000 1.0000
11.4200 26.0000 1.0000
11.4400 17.0000 1.0000
11.4600 26.0000 1.0000
11.4800 24.0000 1.0000
11.5000 26.0000 1.0000
11.5200 20.0000 1.0000
11.5400 19.0000 1.0000
11.5600 17.0000 1.0000
11.5800 27.0000 1.0000
11.6000 25.0000 1.0000
11.6200 26.0000 1.0000
11.6400 25.0000 1.0000
11.6600 18.0000 1.0000
11.6800 18.0000 1.0000
11.7000 18.0000 1.0000
11.7200 24.0000 1.0000
11.7400 22.0000 1.0000
11.7600 18.0000 1.0000
11.7800 23.0000 1.0000
11.8000 17.0000 1.0000
11.8200 23.0000 1.0000
11.8400 21.0000 1.0000
11.8600 27.0000 1.0000
11.8800 23.0000 1.0000
11.9000 32.0000 1.0000
11.9200 23.0000 1.0000
11.9400 26.0000 1.0000
11.9600 21.0000 1.0000
11.9800 25.0000 1.0000
12.0000 21.0000 1.0000
12.0200 29.0000 1.0000
12.0400 27.0000 1.0000
12.0600 11.0000 1.0000
12.0800 16.0000 1.0000
12.1000 19.0000 1.0000
12.1200 30.0000 1.0000
12.1400 16.0000 1.0000
12.1600 24.0000 1.0000
12.1800 18.0000 1.0000
12.2000 21.0000 1.0000
12.2200 17.0000 1.0000
12.2400 24.0000 1.0000
12.2600 26.0000 1.0000
12.2800 20.0000 1.0000
12.3000 29.0000 1.0000
12.3200 21.0000 1.0000
12.3400 24.0000 1.0000
12.3600 21.0000 1.0000
12.3800 17.0000 1.0000
12.4000 21.0000 1.0000
12.4200 22.0000 1.0000
12.4400 26.0000 1.0000
12.4600 20.0000 1.0000
12.4800 18.0000 1.0000
12.5000 18.0000 1.0000
12.5200 15.0000 1.0000
12.5400 17.0000 1.0000
12.5600 15.0000 1.0000
12.5800 27.0000 1.0000
12.6000 27.0000 1.0000
12.6200 32.0000 1.0000
12.6400 20.0000 1.0000
12.6600 25.0000 1.0000
12.6800 31.0000 1.0000
12.7000 26.0000 1.0000
12.7200 21.0000 1.0000
12.7400 25.0000 1.0000
12.7600 18.0000 1.0000
12.7800 22.0000 1.0000
12.8000 33.0000 1.0000
12.8200 28.0000 1.0000
12.8400 21.0000 1.0000
12.8600 19.0000 1.0000
12.8800 13.0000 1.0000
12.9000 22.0000 1.0000
12.9200 29.0000 1.0000
12.9400 21.0000 1.0000
12.9600 24.0000 1.0000
12.9800 14.0000 1.0000
13.0000 32.0000 1.0000
13.0200 27.0000 1.0000
13.0400 22.0000 1.0000
13.0600 24.0000 1.0000
13.0800 21.0000 1.0000
13.1000 23.0000 1.0000
13.1200 28.0000 1.0000
13.1400 30.0000 1.0000
13.1600 29.0000 1.0000
13.1800 25.0000 1.0000
13.2000 24.0000 1.0000
13.2200 24.0000 1.0000
13.2400 25.0000 1.0000
13.2600 19.0000 1.0000
13.2800 24.0000 1.0000
13.3000 33.0000 1.0000
13.3200 18.0000 1.0000
13.3400 22.0000 1.0000
13.3600 30.0000 1.0000
13.3800 19.0000 1.0000
13.4000 26.0000 1.0000
13.4200 21.0000 1.0000
13.4400 27.0000 1.0000
13.4600 24.0000 1.0000
13.4800 23.0000 1.0000
13.5000 16.0000 1.0000
13.5200 28.0000 1.0000
13.5400 29.0000 1.0000
13.5600 17.0000 1.0000
13.5800 31.0000 1.0000
13.6000 22.0000 1.0000
13.6200 31.0000 1.0000
13.6400 31.0000 1.0000
13.6600 31.0000 1.0000
13.6800 16.0000 1.0000
13.7000 20.0000 1.0000
13.7200 24.0000 1.0000
13.7400 24.0000 1.0000
13.7600 18.0000 1.0000
13.7800 24.0000 1.0000
13.8000 28.0000 1.0000
13.8200 28.0000 1.0000
13.8400 23.0000 1.0000
13.8600 26.0000 1.0000
13.8800 25.0000 1.0000
13.9000 31.0000 1.0000
13.9200 32.0000 1.0000
13.9400 21.0000 1.0000
13.9600 32.0000 1.0000
13.9800 33.0000 1.0000
14.0000 35.0000 1.0000
14.0200 23.0000 1.0000
14.0400 21.0000 1.0000
14.0600 23.0000 1.0000
14.0800 18.0000 1.0000
14.1000 25.0000 1.0000
14.1200 15.0000 1.0000
14.1400 23.0000 1.0000
14.1600 23.0000 1.0000
14.1800 30.0000 1.0000
14.2000 24.0000 1.0000
14.2200 25.0000 1.0000
14.2400 23.0000 1.0000
14.2600 24.0000 1.0000
14.2800 27.0000 1.0000
14.3000 21.0000 1.0000
14.3200 18.0000 1.0000
14.3400 28.0000 1.0000
14.3600 24.0000 1.0000
14.3800 34.0000 1.0000
14.4000 20.0000 1.0000
14.4200 25.0000 1.0000
14.4400 29.0000 1.0000
14.4600 21.0000 1.0000
14.4800 28.0000 1.0000
14.5000 23.0000 1.0000
14.5200 21.0000 1.0000
14.5400 16.0000 1.0000
14.5600 24.0000 1.0000
14.5800 27.0000 1.0000
14.6000 22.0000 1.0000
14.6200 26.0000 1.0000
14.6400 22.0000 1.0000
14.6600 27.0000 1.0000
14.6800 22.0000 1.0000
14.7000 29.0000 1.0000
14.7200 31.0000 1.0000
14.7400 32.0000 1.0000
14.7600 34.0000 1.0000
14.7800 26.0000 1.0000
14.8000 16.0000 1.0000
14.8200 24.0000 1.0000
14.8400 20.0000 1.0000
14.8600 32.0000 1.0000
14.8800 14.0000 1.0000
14.9000 26.0000 1.0000
14.9200 27.0000 1.0000
14.9400 27.0000 1.0000
14.9600 17.0000 1.0000
14.9800 30.0000 1.0000
15.0000 27.0000 1.0000
15.0200 22.0000 1.0000
15.0400 25.0000 1.0000
15.0600 19.0000 1.0000
15.0800 28.0000 1.0000
15.1000 29.0000 1.0000
15.1200 23.0000 1.0000
15.1400 25.0000 1.0000
15.1600 20.0000 1.0000
15.1800 44.0000 1.0000
15.2000 32.0000 1.0000
15.2200 21.0000 1.0000
15.2400 23.0000 1.0000
15.2600 21.0000 1.0000
15.2800 22.0000 1.0000
15.3000 29.0000 1.0000
15.3200 29.0000 1.0000
15.3400 24.0000 1.0000
15.3600 30.0000 1.0000
15.3800 14.0000 1.0000
15.4000 34.0000 1.0000
15.4200 19.0000 1.0000
15.4400 32.0000 1.0000
15.4600 18.0000 1.0000
15.4800 29.0000 1.0000
15.5000 23.0000 1.0000
15.5200 22.0000 1.0000
15.5400 27.0000 1.0000
15.5600 23.0000 1.0000
15.5800 35.0000 1.0000
15.6000 23.0000 1.0000
15.6200 30.0000 1.0000
15.6400 39.0000 1.0000
15.6600 28.0000 1.0000
15.6800 20.0000 1.0000
15.7000 26.0000 1.0000
15.7200 23.0000 1.0000
15.7400 36.0000 1.0000
15.7600 26.0000 1.0000
15.7800 26.0000 1.0000
15.8000 24.0000 1.0000
15.8200 32.0000 1.0000
15.8400 27.0000 1.0000
15.8600 25.0000 1.0000
15.8800 37.0000 1.0000
15.9000 26.0000 1.0000
15.9200 19.0000 1.0000
15.9400 34.0000 1.0000
15.9600 27.0000 1.0000
15.9800 26.0000 1.0000
16.0000 24.0000 1.0000
16.0200 27.0000 1.0000
16.0400 37.0000 1.0000
16.0600 32.0000 1.0000
16.0800 36.0000 1.0000
16.1000 25.0000 1.0000
16.1200 23.0000 1.0000
16.1400 27.0000 1.0000
16.1600 34.0000 1.0000
16.1800 32.0000 1.0000
16.2000 28.0000 1.0000
16.2200 22.0000 1.0000
16.2400 32.0000 1.0000
16.2600 22.0000 1.0000
16.2800 27.0000 1.0000
16.3000 28.0000 1.0000
16.3200 21.0000 1.0000
16.3400 24.0000 1.0000
16.3600 27.0000 1.0000
16.3800 26.0000 1.0000
16.4000 28.0000 1.0000
16.4200 31.0000 1.0000
16.4400 27.0000 1.0000
16.4600 37.0000 1.0000
16.4800 33.0000 1.0000
16.5000 31.0000 1.0000
16.5200 25.0000 1.0000
16.5400 35.0000 1.0000
16.5600 28.0000 1.0000
16.5800 35.0000 1.0000
16.6000 29.0000 1.0000
16.6200 28.0000 1.0000
16.6400 39.0000 1.0000
16.6600 32.0000 1.0000
16.6800 25.0000 1.0000
16.7000 27.0000 1.0000
16.7200 31.0000 1.0000
16.7400 28.0000 1.0000
16.7600 30.0000 1.0000
16.7800 28.0000 1.0000
16.8000 25.0000 1.0000
16.8200 28.0000 1.0000
16.8400 29.0000 1.0000
16.8600 25.0000 1.0000
16.8800 26.0000 1.0000
16.9000 28.0000 1.0000
16.9200 28.0000 1.0000
16.9400 34.0000 1.0000
16.9600 21.0000 1.0000
16.9800 32.0000 1.0000
17.0000 32.0000 1.0000
17.0200 22.0000 1.0000
17.0400 37.0000 1.0000
17.0600 33.0000 1.0000
17.0800 30.0000 1.0000
17.1000 26.0000 1.0000
17.1200 27.0000 1.0000
17.1400 41.0000 1.0000
17.1600 32.0000 1.0000
17.1800 21.0000 1.0000
17.2000 22.0000 1.0000
17.2200 26.0000 1.0000
17.2400 21.0000 1.0000
17.2600 35.0000 1.0000
17.2800 24.0000 1.0000
17.3000 25.0000 1.0000
17.3200 35.0000 1.0000
17.3400 24.0000 1.0000
17.3600 32.0000 1.0000
17.3800 23.0000 1.0000
17.4000 40.0000 1.0000
17.4200 31.0000 1.0000
17.4400 41.0000 1.0000
17.4600 33.0000 1.0000
17.4800 25.0000 1.0000
17.5000 35.0000 1.0000
17.5200 32.0000 1.0000
17.5400 33.0000 1.0000
17.5600 31.0000 1.0000
17.5800 38.0000 1.0000
17.6000 32.0000 1.0000
17.6200 32.0000 1.0000
17.6400 33.0000 1.0000
17.6600 28.0000 1.0000
17.6800 30.0000 1.0000
17.7000 34.0000 1.0000
17.7200 21.0000 1.0000
17.7400 27.0000 1.0000
17.7600 34.0000 1.0000
17.7800 31.0000 1.0000
17.8000 30.0000 1.0000
17.8200 45.0000 1.0000
17.8400 39.0000 1.0000
17.8600 27.0000 1.0000
17.8800 24.0000 1.0000
17.9000 32.0000 1.0000
17.9200 43.0000 1.0000
17.9400 26.0000 1.0000
17.9600 43.0000 1.0000
17.9800 35.0000 1.0000
18.0000 38.0000 1.0000
18.0200 26.0000 1.0000
18.0400 44.0000 1.0000
18.0600 43.0000 1.0000
18.0800 46.0000 1.0000
18.1000 29.0000 1.0000
18.1200 38.0000 1.0000
18.1400 25.0000 1.0000
18.1600 42.0000 1.0000
18.1800 35.0000 1.0000
18.2000 33.0000 1.0000
18.2200 40.0000 1.0000
18.2400 24.0000 1.0000
18.2600 24.0000 1.0000
18.2800 27.0000 1.0000
18.3000 35.0000 1.0000
18.3200 42.0000 1.0000
18.3400 41.0000 1.0000
18.3600 34.0000 1.0000
18.3800 34.0000 1.0000
18.4000 34.0000 1.0000
18.4200 43.0000 1.0000
18.4400 37.0000 1.0000
18.4600 34.0000 1.0000
18.4800 29.0000 1.0000
18.5000 34.0000 1.0000
18.5200 30.0000 1.0000
18.5400 33.0000 1.0000
18.5600 37.0000 1.0000
18.5800 31.0000 1.0000
18.6000 37.0000 1.0000
18.6200 31.0000 1.0000
18.6400 42.0000 1.0000
18.6600 34.0000 1.0000
18.6800 30.0000 1.0000
18.7000 31.0000 1.0000
18.7200 34.0000 1.0000
18.7400 33.0000 1.0000
18.7600 29.0000 1.0000
18.7800 32.0000 1.0000
18.8000 39.0000 1.0000
18.8200 29.0000 1.0000
18.8400 35.0000 1.0000
18.8600 39.0000 1.0000
18.8800 23.0000 1.0000
18.9000 30.0000 1.0000
18.9200 38.0000 1.0000
18.9400 27.0000 1.0000
18.9600 25.0000 1.0000
18.9800 27.0000 1.0000
19.0000 27.0000 1.0000
19.0200 22.0000 1.0000
19.0400 30.0000 1.0000
19.0600 41.0000 1.0000
19.0800 34.0000 1.0000
19.1000 31.0000 1.0000
19.1200 30.0000 1.0000
19.1400 33.0000 1.0000
19.1600 35.0000 1.0000
19.1800 38.0000 1.0000
19.2000 35.0000 1.0000
19.2200 42.0000 1.0000
19.2400 37.0000 1.0000
19.2600 28.0000 1.0000
19.2800 30.0000 1.0000
19.3000 24.0000 1.0000
19.3200 33.0000 1.0000
19.3400 36.0000 1.0000
19.3600 30.0000 1.0000
19.3800 42.0000 1.0000
19.4000 40.0000 1.0000
19.4200 47.0000 1.0000
19.4400 37.0000 1.0000
19.4600 32.0000 1.0000
19.4800 44.0000 1.0000
19.5000 44.0000 1.0000
19.5200 34.0000 1.0000
19.5400 42.0000 1.0000
19.5600 38.0000 1.0000
19.5800 38.0000 1.0000
19.6000 41.0000 1.0000
19.6200 41.0000 1.0000
19.6400 30.0000 1.0000
19.6600 37.0000 1.0000
19.6800 47.0000 1.0000
19.7000 36.0000 1.0000
19.7200 36.0000 1.0000
19.7400 35.0000 1.0000
19.7600 35.0000 1.0000
19.7800 39.0000 1.0000
19.8000 42.0000 1.0000
19.8200 37.0000 1.0000
19.8400 35.0000 1.0000
19.8600 36.0000 1.0000
19.8800 38.0000 1.0000
19.9000 43.0000 1.0000
19.9200 42.0000 1.0000
19.9400 39.0000 1.0000
19.9600 32.0000 1.0000
19.9800 37.0000 1.0000
20.0000 29.0000 1.0000
20.0200 40.0000 1.0000
20.0400 27.0000 1.0000
20.0600 36.0000 1.0000
20.0800 32.0000 1.0000
20.1000 34.0000 1.0000
20.1200 42.0000 1.0000
20.1400 31.0000 1.0000
20.1600 36.0000 1.0000
20.1800 31.0000 1.0000
20.2000 45.0000 1.0000
20.2200 39.0000 1.0000
20.2400 44.0000 1.0000
20.2600 37.0000 1.0000
20.2800 46.0000 1.0000
20.3000 27.0000 1.0000
20.3200 40.0000 1.0000
20.3400 49.0000 1.0000
20.3600 36.0000 1.0000
20.3800 32.0000 1.0000
20.4000 36.0000 1.0000
20.4200 40.0000 1.0000
20.4400 46.0000 1.0000
20.4600 43.0000 1.0000
20.4800 30.0000 1.0000
20.5000 42.0000 1.0000
20.5200 46.0000 1.0000
20.5400 32.0000 1.0000
20.5600 24.0000 1.0000
20.5800 40.0000 1.0000
20.6000 43.0000 1.0000
20.6200 33.0000 1.0000
20.6400 38.0000 1.0000
20.6600 39.0000 1.0000
20.6800 32.0000 1.0000
20.7000 42.0000 1.0000
20.7200 40.0000 1.0000
20.7400 43.0000 1.0000
20.7600 39.0000 1.0000
20.7800 28.0000 1.0000
20.8000 31.0000 1.0000
20.8200 30.0000 1.0000
20.8400 40.0000 1.0000
20.8600 36.0000 1.0000
20.8800 48.0000 1.0000
20.9000 30.0000 1.0000
20.9200 37.0000 1.0000
20.9400 48.0000 1.0000
20.9600 35.0000 1.0000
20.9800 35.0000 1.0000
21.0000 42.0000 1.0000
21.0200 42.0000 1.0000
21.0400 33.0000 1.0000
21.0600 42.0000 1.0000
21.0800 35.0000 1.0000
21.1000 44.0000 1.0000
21.1200 32.0000 1.0000
21.1400 41.0000 1.0000
21.1600 43.0000 1.0000
21.1800 28.0000 1.0000
21.2000 40.0000 1.0000
21.2200 20.0000 1.0000
21.2400 54.0000 1.0000
21.2600 30.0000 1.0000
21.2800 36.0000 1.0000
21.3000 34.0000 1.0000
21.3200 38.0000 1.0000
21.3400 50.0000 1.0000
21.3600 37.0000 1.0000
21.3800 37.0000 1.0000
21.4000 41.0000 1.0000
21.4200 54.0000 1.0000
21.4400 46.0000 1.0000
21.4600 43.0000 1.0000
21.4800 45.0000 1.0000
21.5000 40.0000 1.0000
21.5200 56.0000 1.0000
21.5400 52.0000 1.0000
21.5600 65.0000 1.0000
21.5800 42.0000 1.0000
21.6000 60.0000 1.0000
21.6200 52.0000 1.0000
21.6400 45.0000 1.0000
21.6600 40.0000 1.0000
21.6800 40.0000 1.0000
21.7000 52.0000 1.0000
21.7200 44.0000 1.0000
21.7400 50.0000 1.0000
21.7600 52.0000 1.0000
21.7800 44.0000 1.0000
21.8000 52.0000 1.0000
21.8200 53.0000 1.0000
21.8400 47.0000 1.0000
21.8600 45.0000 1.0000
21.8800 53.0000 1.0000
21.9000 73.0000 1.0000
21.9200 82.0000 1.0000
21.9400 89.0000 1.0000
21.9600 95.0000 1.0000
21.9800 152.0000 1.0000
22.0000 140.0000 1.0000
22.0200 166.0000 1.0000
22.0400 181.0000 1.0000
22.0600 225.0000 1.0000
22.0800 204.0000 1.0000
22.1000 176.0000 1.0000
22.1200 162.0000 1.0000
22.1400 127.0000 1.0000
22.1600 125.0000 1.0000
22.1800 101.0000 1.0000
22.2000 84.0000 1.0000
22.2200 73.0000 1.0000
22.2400 57.0000 1.0000
22.2600 55.0000 1.0000
22.2800 54.0000 1.0000
22.3000 64.0000 1.0000
22.3200 53.0000 1.0000
22.3400 51.0000 1.0000
22.3600 52.0000 1.0000
22.3800 74.0000 1.0000
22.4000 46.0000 1.0000
22.4200 33.0000 1.0000
22.4400 54.0000 1.0000
22.4600 53.0000 1.0000
22.4800 44.0000 1.0000
22.5000 54.0000 1.0000
22.5200 56.0000 1.0000
22.5400 68.0000 1.0000
22.5600 64.0000 1.0000
22.5800 62.0000 1.0000
22.6000 58.0000 1.0000
22.6200 58.0000 1.0000
22.6400 63.0000 1.0000
22.6600 90.0000 1.0000
22.6800 78.0000 1.0000
22.7000 78.0000 1.0000
22.7200 95.0000 1.0000
22.7400 111.0000 1.0000
22.7600 96.0000 1.0000
22.7800 111.0000 1.0000
22.8000 113.0000 1.0000
22.8200 116.0000 1.0000
22.8400 138.0000 1.0000
22.8600 152.0000 1.0000
22.8800 151.0000 1.0000
22.9000 184.0000 1.0000
22.9200 191.0000 1.0000
22.9400 198.0000 1.0000
22.9600 236.0000 1.0000
22.9800 265.0000 1.0000
23.0000 293.0000 1.0000
23.0200 360.0000 1.0000
23.0400 372.0000 1.0000
23.0600 410.0000 1.0000
23.0800 471.0000 1.0000
23.1000 557.0000 1.0000
23.1200 647.0000 1.0000
23.1400 660.0000 1.0000
23.1600 727.0000 1.0000
23.1800 688.0000 1.0000
23.2000 737.0000 1.0000
23.2200 683.0000 1.0000
23.2400 642.0000 1.0000
23.2600 654.0000 1.0000
23.2800 584.0000 1.0000
23.3000 510.0000 1.0000
23.3200 410.0000 1.0000
23.3400 364.0000 1.0000
23.3600 276.0000 1.0000
23.3800 284.0000 1.0000
23.4000 249.0000 1.0000
23.4200 196.0000 1.0000
23.4400 186.0000 1.0000
23.4600 186.0000 1.0000
23.4800 169.0000 1.0000
23.5000 135.0000 1.0000
23.5200 132.0000 1.0000
23.5400 108.0000 1.0000
23.5600 122.0000 1.0000
23.5800 107.0000 1.0000
23.6000 108.0000 1.0000
23.6200 96.0000 1.0000
23.6400 91.0000 1.0000
23.6600 101.0000 1.0000
23.6800 95.0000 1.0000
23.7000 73.0000 1.0000
23.7200 61.0000 1.0000
23.7400 57.0000 1.0000
23.7600 68.0000 1.0000
23.7800 62.0000 1.0000
23.8000 51.0000 1.0000
23.8200 59.0000 1.0000
23.8400 66.0000 1.0000
23.8600 46.0000 1.0000
23.8800 59.0000 1.0000
23.9000 49.0000 1.0000
23.9200 51.0000 1.0000
23.9400 48.0000 1.0000
23.9600 57.0000 1.0000
23.9800 42.0000 1.0000
24.0000 43.0000 1.0000
24.0200 59.0000 1.0000
24.0400 54.0000 1.0000
24.0600 41.0000 1.0000
24.0800 40.0000 1.0000
24.1000 50.0000 1.0000
24.1200 33.0000 1.0000
24.1400 44.0000 1.0000
24.1600 48.0000 1.0000
24.1800 42.0000 1.0000
24.2000 47.0000 1.0000
24.2200 35.0000 1.0000
24.2400 39.0000 1.0000
24.2600 51.0000 1.0000
24.2800 43.0000 1.0000
24.3000 35.0000 1.0000
24.3200 42.0000 1.0000
24.3400 39.0000 1.0000
24.3600 35.0000 1.0000
24.3800 46.0000 1.0000
24.4000 42.0000 1.0000
24.4200 33.0000 1.0000
24.4400 28.0000 1.0000
24.4600 46.0000 1.0000
24.4800 45.0000 1.0000
24.5000 41.0000 1.0000
24.5200 31.0000 1.0000
24.5400 41.0000 1.0000
24.5600 40.0000 1.0000
24.5800 34.0000 1.0000
24.6000 54.0000 1.0000
24.6200 27.0000 1.0000
24.6400 41.0000 1.0000
24.6600 39.0000 1.0000
24.6800 50.0000 1.0000
24.7000 41.0000 1.0000
24.7200 42.0000 1.0000
24.7400 46.0000 1.0000
24.7600 40.0000 1.0000
24.7800 49.0000 1.0000
24.8000 55.0000 1.0000
24.8200 36.0000 1.0000
24.8400 46.0000 1.0000
24.8600 40.0000 1.0000
24.8800 51.0000 1.0000
24.9000 63.0000 1.0000
24.9200 69.0000 1.0000
24.9400 72.0000 1.0000
24.9600 54.0000 1.0000
24.9800 77.0000 1.0000
25.0000 92.0000 1.0000
25.0200 94.0000 1.0000
25.0400 86.0000 1.0000
25.0600 88.0000 1.0000
25.0800 85.0000 1.0000
25.1000 71.0000 1.0000
25.1200 69.0000 1.0000
25.1400 48.0000 1.0000
25.1600 34.0000 1.0000
25.1800 52.0000 1.0000
25.2000 34.0000 1.0000
25.2200 39.0000 1.0000
25.2400 37.0000 1.0000
25.2600 29.0000 1.0000
25.2800 30.0000 1.0000
25.3000 32.0000 1.0000
25.3200 41.0000 1.0000
25.3400 27.0000 1.0000
25.3600 29.0000 1.0000
25.3800 34.0000 1.0000
25.4000 38.0000 1.0000
25.4200 34.0000 1.0000
25.4400 41.0000 1.0000
25.4600 38.0000 1.0000
25.4800 43.0000 1.0000
25.5000 43.0000 1.0000
25.5200 43.0000 1.0000
25.5400 40.0000 1.0000
25.5600 40.0000 1.0000
25.5800 37.0000 1.0000
25.6000 40.0000 1.0000
25.6200 35.0000 1.0000
25.6400 48.0000 1.0000
25.6600 36.0000 1.0000
25.6800 25.0000 1.0000
25.7000 44.0000 1.0000
25.7200 36.0000 1.0000
25.7400 34.0000 1.0000
25.7600 49.0000 1.0000
25.7800 46.0000 1.0000
25.8000 42.0000 1.0000
25.8200 41.0000 1.0000
25.8400 39.0000 1.0000
25.8600 35.0000 1.0000
25.8800 45.0000 1.0000
25.9000 39.0000 1.0000
25.9200 29.0000 1.0000
25.9400 45.0000 1.0000
25.9600 32.0000 1.0000
25.9800 44.0000 1.0000
26.0000 49.0000 1.0000
26.0200 37.0000 1.0000
26.0400 30.0000 1.0000
26.0600 43.0000 1.0000
26.0800 36.0000 1.0000
26.1000 43.0000 1.0000
26.1200 33.0000 1.0000
26.1400 49.0000 1.0000
26.1600 31.0000 1.0000
26.1800 27.0000 1.0000
26.2000 32.0000 1.0000
26.2200 52.0000 1.0000
26.2400 43.0000 1.0000
26.2600 29.0000 1.0000
26.2800 29.0000 1.0000
26.3000 42.0000 1.0000
26.3200 40.0000 1.0000
26.3400 32.0000 1.0000
26.3600 35.0000 1.0000
26.3800 30.0000 1.0000
26.4000 27.0000 1.0000
26.4200 47.0000 1.0000
26.4400 44.0000 1.0000
26.4600 36.0000 1.0000
26.4800 43.0000 1.0000
26.5000 34.0000 1.0000
26.5200 40.0000 1.0000
26.5400 37.0000 1.0000
26.5600 38.0000 1.0000
26.5800 56.0000 1.0000
26.6000 37.0000 1.0000
26.6200 35.0000 1.0000
26.6400 30.0000 1.0000
26.6600 43.0000 1.0000
26.6800 31.0000 1.0000
26.7000 39.0000 1.0000
26.7200 39.0000 1.0000
26.7400 33.0000 1.0000
26.7600 50.0000 1.0000
26.7800 43.0000 1.0000
26.8000 41.0000 1.0000
26.8200 38.0000 1.0000
26.8400 32.0000 1.0000
26.8600 43.0000 1.0000
26.8800 39.0000 1.0000
26.9000 39.0000 1.0000
26.9200 40.0000 1.0000
26.9400 35.0000 1.0000
26.9600 28.0000 1.0000
26.9800 32.0000 1.0000
27.0000 47.0000 1.0000
27.0200 39.0000 1.0000
27.0400 28.0000 1.0000
27.0600 32.0000 1.0000
27.0800 46.0000 1.0000
27.1000 38.0000 1.0000
27.1200 33.0000 1.0000
27.1400 42.0000 1.0000
27.1600 32.0000 1.0000
27.1800 32.0000 1.0000
27.2000 31.0000 1.0000
27.2200 42.0000 1.0000
27.2400 44.0000 1.0000
27.2600 41.0000 1.0000
27.2800 27.0000 1.0000
27.3000 41.0000 1.0000
27.3200 32.0000 1.0000
27.3400 35.0000 1.0000
27.3600 40.0000 1.0000
27.3800 44.0000 1.0000
27.4000 49.0000 1.0000
27.4200 31.0000 1.0000
27.4400 38.0000 1.0000
27.4600 52.0000 1.0000
27.4800 52.0000 1.0000
27.5000 25.0000 1.0000
27.5200 29.0000 1.0000
27.5400 23.0000 1.0000
27.5600 47.0000 1.0000
27.5800 43.0000 1.0000
27.6000 43.0000 1.0000
27.6200 41.0000 1.0000
27.6400 42.0000 1.0000
27.6600 26.0000 1.0000
27.6800 30.0000 1.0000
27.7000 34.0000 1.0000
27.7200 59.0000 1.0000
27.7400 49.0000 1.0000
27.7600 40.0000 1.0000
27.7800 52.0000 1.0000
27.8000 49.0000 1.0000
27.8200 57.0000 1.0000
27.8400 59.0000 1.0000
27.8600 60.0000 1.0000
27.8800 58.0000 1.0000
27.9000 55.0000 1.0000
27.9200 77.0000 1.0000
27.9400 101.0000 1.0000
27.9600 99.0000 1.0000
27.9800 112.0000 1.0000
28.0000 145.0000 1.0000
28.0200 176.0000 1.0000
28.0400 173.0000 1.0000
28.0600 202.0000 1.0000
28.0800 165.0000 1.0000
28.1000 135.0000 1.0000
28.1200 125.0000 1.0000
28.1400 108.0000 1.0000
28.1600 98.0000 1.0000
28.1800 69.0000 1.0000
28.2000 67.0000 1.0000
28.2200 46.0000 1.0000
28.2400 51.0000 1.0000
28.2600 58.0000 1.0000
28.2800 51.0000 1.0000
28.3000 36.0000 1.0000
28.3200 37.0000 1.0000
28.3400 40.0000 1.0000
28.3600 57.0000 1.0000
28.3800 51.0000 1.0000
28.4000 49.0000 1.0000
28.4200 58.0000 1.0000
28.4400 48.0000 1.0000
28.4600 55.0000 1.0000
28.4800 46.0000 1.0000
28.5000 55.0000 1.0000
28.5200 44.0000 1.0000
28.5400 53.0000 1.0000
28.5600 46.0000 1.0000
28.5800 55.0000 1.0000
28.6000 57.0000 1.0000
28.6200 53.0000 1.0000
28.6400 57.0000 1.0000
28.6600 48.0000 1.0000
28.6800 48.0000 1.0000
28.7000 44.0000 1.0000
28.7200 40.0000 1.0000
28.7400 41.0000 1.0000
28.7600 33.0000 1.0000
28.7800 43.0000 1.0000
28.8000 39.0000 1.0000
28.8200 32.0000 1.0000
28.8400 39.0000 1.0000
28.8600 35.0000 1.0000
28.8800 47.0000 1.0000
28.9000 44.0000 1.0000
28.9200 53.0000 1.0000
28.9400 59.0000 1.0000
28.9600 42.0000 1.0000
28.9800 72.0000 1.0000
29.0000 59.0000 1.0000
29.0200 59.0000 1.0000
29.0400 52.0000 1.0000
29.0600 58.0000 1.0000
29.0800 65.0000 1.0000
29.1000 49.0000 1.0000
29.1200 39.0000 1.0000
29.1400 53.0000 1.0000
29.1600 51.0000 1.0000
29.1800 49.0000 1.0000
29.2000 44.0000 1.0000
29.2200 38.0000 1.0000
29.2400 41.0000 1.0000
29.2600 41.0000 1.0000
29.2800 44.0000 1.0000
29.3000 36.0000 1.0000
29.3200 42.0000 1.0000
29.3400 38.0000 1.0000
29.3600 41.0000 1.0000
29.3800 33.0000 1.0000
29.4000 52.0000 1.0000
29.4200 37.0000 1.0000
29.4400 37.0000 1.0000
29.4600 36.0000 1.0000
29.4800 49.0000 1.0000
29.5000 45.0000 1.0000
29.5200 52.0000 1.0000
29.5400 42.0000 1.0000
29.5600 32.0000 1.0000
29.5800 48.0000 1.0000
29.6000 39.0000 1.0000
29.6200 47.0000 1.0000
29.6400 53.0000 1.0000
29.6600 42.0000 1.0000
29.6800 46.0000 1.0000
29.7000 45.0000 1.0000
29.7200 40.0000 1.0000
29.7400 36.0000 1.0000
29.7600 49.0000 1.0000
29.7800 47.0000 1.0000
29.8000 41.0000 1.0000
29.8200 40.0000 1.0000
29.8400 42.0000 1.0000
29.8600 62.0000 1.0000
29.8800 54.0000 1.0000
29.9000 45.0000 1.0000
29.9200 47.0000 1.0000
29.9400 32.0000 1.0000
29.9600 37.0000 1.0000
29.9800 45.0000 1.0000
30.0000 49.0000 1.0000
30.0200 45.0000 1.0000
30.0400 43.0000 1.0000
30.0600 46.0000 1.0000
30.0800 57.0000 1.0000
30.1000 42.0000 1.0000
30.1200 49.0000 1.0000
30.1400 41.0000 1.0000
30.1600 49.0000 1.0000
30.1800 38.0000 1.0000
30.2000 55.0000 1.0000
30.2200 55.0000 1.0000
30.2400 45.0000 1.0000
30.2600 55.0000 1.0000
30.2800 49.0000 1.0000
30.3000 41.0000 1.0000
30.3200 50.0000 1.0000
30.3400 54.0000 1.0000
30.3600 61.0000 1.0000
30.3800 50.0000 1.0000
30.4000 55.0000 1.0000
30.4200 60.0000 1.0000
30.4400 60.0000 1.0000
30.4600 69.0000 1.0000
30.4800 67.0000 1.0000
30.5000 75.0000 1.0000
30.5200 60.0000 1.0000
30.5400 66.0000 1.0000
30.5600 81.0000 1.0000
30.5800 68.0000 1.0000
30.6000 79.0000 1.0000
30.6200 87.0000 1.0000
30.6400 78.0000 1.0000
30.6600 97.0000 1.0000
30.6800 119.0000 1.0000
30.7000 125.0000 1.0000
30.7200 121.0000 1.0000
30.7400 130.0000 1.0000
30.7600 141.0000 1.0000
30.7800 148.0000 1.0000
30.8000 165.0000 1.0000
30.8200 169.0000 1.0000
30.8400 197.0000 1.0000
30.8600 166.0000 1.0000
30.8800 177.0000 1.0000
30.9000 202.0000 1.0000
30.9200 189.0000 1.0000
30.9400 205.0000 1.0000
30.9600 243.0000 1.0000
30.9800 277.0000 1.0000
31.0000 273.0000 1.0000
31.0200 296.0000 1.0000
31.0400 321.0000 1.0000
31.0600 377.0000 1.0000
31.0800 457.0000 1.0000
31.1000 471.0000 1.0000
31.1200 531.0000 1.0000
31.1400 597.0000 1.0000
31.1600 725.0000 1.0000
31.1800 818.0000 1.0000
31.2000 969.0000 1.0000
31.2200 1095.0000 1.0000
31.2400 1262.0000 1.0000
31.2600 1354.0000 1.0000
31.2800 1642.0000 1.0000
31.3000 1686.0000 1.0000
31.3200 1791.0000 1.0000
31.3400 1834.0000 1.0000
31.3600 1860.0000 1.0000
31.3800 1848.0000 1.0000
31.4000 1799.0000 1.0000
31.4200 1558.0000 1.0000
31.4400 1333.0000 1.0000
31.4600 1161.0000 1.0000
31.4800 1062.0000 1.0000
31.5000 866.0000 1.0000
31.5200 752.0000 1.0000
31.5400 626.0000 1.0000
31.5600 533.0000 1.0000
31.5800 499.0000 1.0000
31.6000 356.0000 1.0000
31.6200 377.0000 1.0000
31.6400 292.0000 1.0000
31.6600 292.0000 1.0000
31.6800 280.0000 1.0000
31.7000 238.0000 1.0000
31.7200 201.0000 1.0000
31.7400 179.0000 1.0000
31.7600 171.0000 1.0000
31.7800 158.0000 1.0000
31.8000 148.0000 1.0000
31.8200 128.0000 1.0000
31.8400 131.0000 1.0000
31.8600 120.0000 1.0000
31.8800 117.0000 1.0000
31.9000 121.0000 1.0000
31.9200 99.0000 1.0000
31.9400 104.0000 1.0000
31.9600 98.0000 1.0000
31.9800 91.0000 1.0000
32.0000 73.0000 1.0000
32.0200 102.0000 1.0000
32.0400 76.0000 1.0000
32.0600 77.0000 1.0000
32.0800 89.0000 1.0000
32.1000 69.0000 1.0000
32.1200 68.0000 1.0000
32.1400 69.0000 1.0000
32.1600 64.0000 1.0000
32.1800 70.0000 1.0000
32.2000 56.0000 1.0000
32.2200 60.0000 1.0000
32.2400 54.0000 1.0000
32.2600 63.0000 1.0000
32.2800 49.0000 1.0000
32.3000 57.0000 1.0000
32.3200 61.0000 1.0000
32.3400 46.0000 1.0000
32.3600 38.0000 1.0000
32.3800 49.0000 1.0000
32.4000 46.0000 1.0000
32.4200 52.0000 1.0000
32.4400 56.0000 1.0000
32.4600 36.0000 1.0000
32.4800 48.0000 1.0000
32.5000 41.0000 1.0000
32.5200 45.0000 1.0000
32.5400 53.0000 1.0000
32.5600 52.0000 1.0000
32.5800 38.0000 1.0000
32.6000 31.0000 1.0000
32.6200 36.0000 1.0000
32.6400 43.0000 1.0000
32.6600 45.0000 1.0000
32.6800 45.0000 1.0000
32.7000 46.0000 1.0000
32.7200 46.0000 1.0000
32.7400 48.0000 1.0000
32.7600 36.0000 1.0000
32.7800 44.0000 1.0000
32.8000 54.0000 1.0000
32.8200 52.0000 1.0000
32.8400 46.0000 1.0000
32.8600 51.0000 1.0000
32.8800 47.0000 1.0000
32.9000 36.0000 1.0000
32.9200 46.0000 1.0000
32.9400 37.0000 1.0000
32.9600 38.0000 1.0000
32.9800 50.0000 1.0000
33.0000 45.0000 1.0000
33.0200 46.0000 1.0000
33.0400 36.0000 1.0000
33.0600 40.0000 1.0000
33.0800 40.0000 1.0000
33.1000 47.0000 1.0000
33.1200 46.0000 1.0000
33.1400 36.0000 1.0000
33.1600 42.0000 1.0000
33.1800 38.0000 1.0000
33.2000 42.0000 1.0000
33.2200 49.0000 1.0000
33.2400 44.0000 1.0000
33.2600 39.0000 1.0000
33.2800 44.0000 1.0000
33.3000 41.0000 1.0000
33.3200 35.0000 1.0000
33.3400 48.0000 1.0000
33.3600 36.0000 1.0000
33.3800 47.0000 1.0000
33.4000 46.0000 1.0000
33.4200 50.0000 1.0000
33.4400 36.0000 1.0000
33.4600 40.0000 1.0000
33.4800 46.0000 1.0000
33.5000 67.0000 1.0000
33.5200 67.0000 1.0000
33.5400 72.0000 1.0000
33.5600 101.0000 1.0000
33.5800 115.0000 1.0000
33.6000 145.0000 1.0000
33.6200 137.0000 1.0000
33.6400 163.0000 1.0000
33.6600 162.0000 1.0000
33.6800 126.0000 1.0000
33.7000 139.0000 1.0000
33.7200 138.0000 1.0000
33.7400 98.0000 1.0000
33.7600 84.0000 1.0000
33.7800 76.0000 1.0000
33.8000 79.0000 1.0000
33.8200 49.0000 1.0000
33.8400 57.0000 1.0000
33.8600 39.0000 1.0000
33.8800 49.0000 1.0000
33.9000 50.0000 1.0000
33.9200 41.0000 1.0000
33.9400 43.0000 1.0000
33.9600 34.0000 1.0000
33.9800 33.0000 1.0000
34.0000 58.0000 1.0000
34.0200 27.0000 1.0000
34.0400 40.0000 1.0000
34.0600 39.0000 1.0000
34.0800 39.0000 1.0000
34.1000 31.0000 1.0000
34.1200 36.0000 1.0000
34.1400 31.0000 1.0000
34.1600 32.0000 1.0000
34.1800 29.0000 1.0000
34.2000 27.0000 1.0000
34.2200 40.0000 1.0000
34.2400 29.0000 1.0000
34.2600 35.0000 1.0000
34.2800 31.0000 1.0000
34.3000 35.0000 1.0000
34.3200 39.0000 1.0000
34.3400 25.0000 1.0000
34.3600 32.0000 1.0000
34.3800 32.0000 1.0000
34.4000 32.0000 1.0000
34.4200 33.0000 1.0000
34.4400 27.0000 1.0000
34.4600 30.0000 1.0000
34.4800 38.0000 1.0000
34.5000 26.0000 1.0000
34.5200 34.0000 1.0000
34.5400 39.0000 1.0000
34.5600 35.0000 1.0000
34.5800 31.0000 1.0000
34.6000 37.0000 1.0000
34.6200 29.0000 1.0000
34.6400 42.0000 1.0000
34.6600 20.0000 1.0000
34.6800 36.0000 1.0000
34.7000 31.0000 1.0000
34.7200 35.0000 1.0000
34.7400 43.0000 1.0000
34.7600 31.0000 1.0000
34.7800 32.0000 1.0000
34.8000 39.0000 1.0000
34.8200 35.0000 1.0000
34.8400 29.0000 1.0000
34.8600 32.0000 1.0000
34.8800 48.0000 1.0000
34.9000 28.0000 1.0000
34.9200 30.0000 1.0000
34.9400 24.0000 1.0000
34.9600 48.0000 1.0000
34.9800 38.0000 1.0000
35.0000 40.0000 1.0000
35.0200 26.0000 1.0000
35.0400 41.0000 1.0000
35.0600 27.0000 1.0000
35.0800 33.0000 1.0000
35.1000 39.0000 1.0000
35.1200 30.0000 1.0000
35.1400 23.0000 1.0000
35.1600 31.0000 1.0000
35.1800 40.0000 1.0000
35.2000 30.0000 1.0000
35.2200 29.0000 1.0000
35.2400 42.0000 1.0000
35.2600 30.0000 1.0000
35.2800 35.0000 1.0000
35.3000 37.0000 1.0000
35.3200 31.0000 1.0000
35.3400 32.0000 1.0000
35.3600 42.0000 1.0000
35.3800 36.0000 1.0000
35.4000 26.0000 1.0000
35.4200 38.0000 1.0000
35.4400 35.0000 1.0000
35.4600 32.0000 1.0000
35.4800 45.0000 1.0000
35.5000 30.0000 1.0000
35.5200 44.0000 1.0000
35.5400 36.0000 1.0000
35.5600 46.0000 1.0000
35.5800 44.0000 1.0000
35.6000 45.0000 1.0000
35.6200 51.0000 1.0000
35.6400 47.0000 1.0000
35.6600 42.0000 1.0000
35.6800 46.0000 1.0000
35.7000 53.0000 1.0000
35.7200 54.0000 1.0000
35.7400 66.0000 1.0000
35.7600 60.0000 1.0000
35.7800 56.0000 1.0000
35.8000 56.0000 1.0000
35.8200 65.0000 1.0000
35.8400 61.0000 1.0000
35.8600 80.0000 1.0000
35.8800 80.0000 1.0000
35.9000 102.0000 1.0000
35.9200 114.0000 1.0000
35.9400 143.0000 1.0000
35.9600 184.0000 1.0000
35.9800 203.0000 1.0000
36.0000 188.0000 1.0000
36.0200 236.0000 1.0000
36.0400 224.0000 1.0000
36.0600 223.0000 1.0000
36.0800 224.0000 1.0000
36.1000 161.0000 1.0000
36.1200 129.0000 1.0000
36.1400 135.0000 1.0000
36.1600 108.0000 1.0000
36.1800 99.0000 1.0000
36.2000 94.0000 1.0000
36.2200 59.0000 1.0000
36.2400 68.0000 1.0000
36.2600 53.0000 1.0000
36.2800 58.0000 1.0000
36.3000 56.0000 1.0000
36.3200 51.0000 1.0000
36.3400 46.0000 1.0000
36.3600 36.0000 1.0000
36.3800 33.0000 1.0000
36.4000 29.0000 1.0000
36.4200 36.0000 1.0000
36.4400 49.0000 1.0000
36.4600 45.0000 1.0000
36.4800 35.0000 1.0000
36.5000 51.0000 1.0000
36.5200 43.0000 1.0000
36.5400 28.0000 1.0000
36.5600 31.0000 1.0000
36.5800 28.0000 1.0000
36.6000 34.0000 1.0000
36.6200 34.0000 1.0000
36.6400 33.0000 1.0000
36.6600 28.0000 1.0000
36.6800 34.0000 1.0000
36.7000 32.0000 1.0000
36.7200 36.0000 1.0000
36.7400 31.0000 1.0000
36.7600 27.0000 1.0000
36.7800 44.0000 1.0000
36.8000 39.0000 1.0000
36.8200 29.0000 1.0000
36.8400 23.0000 1.0000
36.8600 25.0000 1.0000
36.8800 42.0000 1.0000
36.9000 44.0000 1.0000
36.9200 32.0000 1.0000
36.9400 33.0000 1.0000
36.9600 32.0000 1.0000
36.9800 37.0000 1.0000
37.0000 40.0000 1.0000
37.0200 40.0000 1.0000
37.0400 31.0000 1.0000
37.0600 35.0000 1.0000
37.0800 37.0000 1.0000
37.1000 28.0000 1.0000
37.1200 25.0000 1.0000
37.1400 30.0000 1.0000
37.1600 36.0000 1.0000
37.1800 29.0000 1.0000
37.2000 28.0000 1.0000
37.2200 27.0000 1.0000
37.2400 29.0000 1.0000
37.2600 37.0000 1.0000
37.2800 36.0000 1.0000
37.3000 35.0000 1.0000
37.3200 28.0000 1.0000
37.3400 26.0000 1.0000
37.3600 40.0000 1.0000
37.3800 38.0000 1.0000
37.4000 35.0000 1.0000
37.4200 41.0000 1.0000
37.4400 31.0000 1.0000
37.4600 39.0000 1.0000
37.4800 34.0000 1.0000
37.5000 51.0000 1.0000
37.5200 38.0000 1.0000
37.5400 38.0000 1.0000
37.5600 37.0000 1.0000
37.5800 37.0000 1.0000
37.6000 44.0000 1.0000
37.6200 36.0000 1.0000
37.6400 40.0000 1.0000
37.6600 31.0000 1.0000
37.6800 34.0000 1.0000
37.7000 45.0000 1.0000
37.7200 44.0000 1.0000
37.7400 38.0000 1.0000
37.7600 49.0000 1.0000
37.7800 48.0000 1.0000
37.8000 45.0000 1.0000
37.8200 51.0000 1.0000
37.8400 54.0000 1.0000
37.8600 44.0000 1.0000
37.8800 48.0000 1.0000
37.9000 49.0000 1.0000
37.9200 49.0000 1.0000
37.9400 51.0000 1.0000
37.9600 54.0000 1.0000
37.9800 55.0000 1.0000
38.0000 51.0000 1.0000
38.0200 50.0000 1.0000
38.0400 40.0000 1.0000
38.0600 44.0000 1.0000
38.0800 45.0000 1.0000
38.1000 55.0000 1.0000
38.1200 49.0000 1.0000
38.1400 47.0000 1.0000
38.1600 44.0000 1.0000
38.1800 50.0000 1.0000
38.2000 40.0000 1.0000
38.2200 37.0000 1.0000
38.2400 45.0000 1.0000
38.2600 52.0000 1.0000
38.2800 56.0000 1.0000
38.3000 57.0000 1.0000
38.3200 52.0000 1.0000
38.3400 54.0000 1.0000
38.3600 65.0000 1.0000
38.3800 68.0000 1.0000
38.4000 56.0000 1.0000
38.4200 57.0000 1.0000
38.4400 72.0000 1.0000
38.4600 78.0000 1.0000
38.4800 58.0000 1.0000
38.5000 77.0000 1.0000
38.5200 74.0000 1.0000
38.5400 73.0000 1.0000
38.5600 81.0000 1.0000
38.5800 75.0000 1.0000
38.6000 73.0000 1.0000
38.6200 73.0000 1.0000
38.6400 84.0000 1.0000
38.6600 109.0000 1.0000
38.6800 83.0000 1.0000
38.7000 92.0000 1.0000
38.7200 89.0000 1.0000
38.7400 123.0000 1.0000
38.7600 104.0000 1.0000
38.7800 112.0000 1.0000
38.8000 136.0000 1.0000
38.8200 150.0000 1.0000
38.8400 145.0000 1.0000
38.8600 156.0000 1.0000
38.8800 167.0000 1.0000
38.9000 195.0000 1.0000
38.9200 175.0000 1.0000
38.9400 240.0000 1.0000
38.9600 243.0000 1.0000
38.9800 236.0000 1.0000
39.0000 278.0000 1.0000
39.0200 290.0000 1.0000
39.0400 330.0000 1.0000
39.0600 346.0000 1.0000
39.0800 405.0000 1.0000
39.1000 425.0000 1.0000
39.1200 431.0000 1.0000
39.1400 485.0000 1.0000
39.1600 586.0000 1.0000
39.1800 650.0000 1.0000
39.2000 747.0000 1.0000
39.2200 819.0000 1.0000
39.2400 894.0000 1.0000
39.2600 1003.0000 1.0000
39.2800 1166.0000 1.0000
39.3000 1273.0000 1.0000
39.3200 1498.0000 1.0000
39.3400 1549.0000 1.0000
39.3600 1685.0000 1.0000
39.3800 1727.0000 1.0000
39.4000 1814.0000 1.0000
39.4200 1769.0000 1.0000
39.4400 1771.0000 1.0000
39.4600 1673.0000 1.0000
39.4800 1561.0000 1.0000
39.5000 1457.0000 1.0000
39.5200 1295.0000 1.0000
39.5400 1164.0000 1.0000
39.5600 1088.0000 1.0000
39.5800 936.0000 1.0000
39.6000 833.0000 1.0000
39.6200 718.0000 1.0000
39.6400 636.0000 1.0000
39.6600 585.0000 1.0000
39.6800 472.0000 1.0000
39.7000 442.0000 1.0000
39.7200 448.0000 1.0000
39.7400 368.0000 1.0000
39.7600 342.0000 1.0000
39.7800 285.0000 1.0000
39.8000 265.0000 1.0000
39.8200 255.0000 1.0000
39.8400 236.0000 1.0000
39.8600 214.0000 1.0000
39.8800 215.0000 1.0000
39.9000 168.0000 1.0000
39.9200 175.0000 1.0000
39.9400 155.0000 1.0000
39.9600 161.0000 1.0000
39.9800 137.0000 1.0000
40.0000 139.0000 1.0000
40.0200 124.0000 1.0000
40.0400 156.0000 1.0000
40.0600 124.0000 1.0000
40.0800 126.0000 1.0000
40.1000 142.0000 1.0000
40.1200 110.0000 1.0000
40.1400 110.0000 1.0000
40.1600 106.0000 1.0000
40.1800 99.0000 1.0000
40.2000 105.0000 1.0000
40.2200 102.0000 1.0000
40.2400 89.0000 1.0000
40.2600 80.0000 1.0000
40.2800 71.0000 1.0000
40.3000 83.0000 1.0000
40.3200 58.0000 1.0000
40.3400 64.0000 1.0000
40.3600 49.0000 1.0000
40.3800 58.0000 1.0000
40.4000 45.0000 1.0000
40.4200 72.0000 1.0000
40.4400 65.0000 1.0000
40.4600 44.0000 1.0000
40.4800 43.0000 1.0000
40.5000 40.0000 1.0000
40.5200 45.0000 1.0000
40.5400 46.0000 1.0000
40.5600 46.0000 1.0000
40.5800 45.0000 1.0000
40.6000 55.0000 1.0000
40.6200 51.0000 1.0000
40.6400 36.0000 1.0000
40.6600 42.0000 1.0000
40.6800 60.0000 1.0000
40.7000 41.0000 1.0000
40.7200 45.0000 1.0000
40.7400 44.0000 1.0000
40.7600 34.0000 1.0000
40.7800 38.0000 1.0000
40.8000 43.0000 1.0000
40.8200 51.0000 1.0000
40.8400 47.0000 1.0000
40.8600 48.0000 1.0000
40.8800 35.0000 1.0000
40.9000 45.0000 1.0000
40.9200 31.0000 1.0000
40.9400 38.0000 1.0000
40.9600 26.0000 1.0000
40.9800 42.0000 1.0000
41.0000 35.0000 1.0000
41.0200 31.0000 1.0000
41.0400 35.0000 1.0000
41.0600 25.0000 1.0000
41.0800 34.0000 1.0000
41.1000 27.0000 1.0000
41.1200 40.0000 1.0000
41.1400 31.0000 1.0000
41.1600 34.0000 1.0000
41.1800 31.0000 1.0000
41.2000 30.0000 1.0000
41.2200 28.0000 1.0000
41.2400 30.0000 1.0000
41.2600 33.0000 1.0000
41.2800 38.0000 1.0000
41.3000 33.0000 1.0000
41.3200 28.0000 1.0000
41.3400 42.0000 1.0000
41.3600 26.0000 1.0000
41.3800 35.0000 1.0000
41.4000 35.0000 1.0000
41.4200 34.0000 1.0000
41.4400 32.0000 1.0000
41.4600 39.0000 1.0000
41.4800 31.0000 1.0000
41.5000 25.0000 1.0000
41.5200 20.0000 1.0000
41.5400 35.0000 1.0000
41.5600 28.0000 1.0000
41.5800 30.0000 1.0000
41.6000 43.0000 1.0000
41.6200 25.0000 1.0000
41.6400 29.0000 1.0000
41.6600 30.0000 1.0000
41.6800 24.0000 1.0000
41.7000 32.0000 1.0000
41.7200 29.0000 1.0000
41.7400 33.0000 1.0000
41.7600 30.0000 1.0000
41.7800 32.0000 1.0000
41.8000 25.0000 1.0000
41.8200 28.0000 1.0000
41.8400 24.0000 1.0000
41.8600 24.0000 1.0000
41.8800 30.0000 1.0000
41.9000 22.0000 1.0000
41.9200 27.0000 1.0000
41.9400 18.0000 1.0000
41.9600 25.0000 1.0000
41.9800 24.0000 1.0000
42.0000 32.0000 1.0000
42.0200 28.0000 1.0000
42.0400 28.0000 1.0000
42.0600 39.0000 1.0000
42.0800 22.0000 1.0000
42.1000 32.0000 1.0000
42.1200 23.0000 1.0000
42.1400 23.0000 1.0000
42.1600 29.0000 1.0000
42.1800 35.0000 1.0000
42.2000 32.0000 1.0000
42.2200 30.0000 1.0000
42.2400 40.0000 1.0000
42.2600 26.0000 1.0000
42.2800 36.0000 1.0000
42.3000 37.0000 1.0000
42.3200 47.0000 1.0000
42.3400 46.0000 1.0000
42.3600 55.0000 1.0000
42.3800 56.0000 1.0000
42.4000 53.0000 1.0000
42.4200 66.0000 1.0000
42.4400 48.0000 1.0000
42.4600 64.0000 1.0000
42.4800 52.0000 1.0000
42.5000 49.0000 1.0000
42.5200 49.0000 1.0000
42.5400 45.0000 1.0000
42.5600 36.0000 1.0000
42.5800 43.0000 1.0000
42.6000 33.0000 1.0000
42.6200 34.0000 1.0000
42.6400 30.0000 1.0000
42.6600 38.0000 1.0000
42.6800 27.0000 1.0000
42.7000 33.0000 1.0000
42.7200 31.0000 1.0000
42.7400 25.0000 1.0000
42.7600 30.0000 1.0000
42.7800 39.0000 1.0000
42.8000 28.0000 1.0000
42.8200 39.0000 1.0000
42.8400 26.0000 1.0000
42.8600 25.0000 1.0000
42.8800 32.0000 1.0000
42.9000 28.0000 1.0000
42.9200 33.0000 1.0000
42.9400 36.0000 1.0000
42.9600 30.0000 1.0000
42.9800 22.0000 1.0000
43.0000 30.0000 1.0000
43.0200 28.0000 1.0000
43.0400 32.0000 1.0000
43.0600 28.0000 1.0000
43.0800 27.0000 1.0000
43.1000 26.0000 1.0000
43.1200 33.0000 1.0000
43.1400 15.0000 1.0000
43.1600 39.0000 1.0000
43.1800 24.0000 1.0000
43.2000 31.0000 1.0000
43.2200 36.0000 1.0000
43.2400 31.0000 1.0000
43.2600 28.0000 1.0000
43.2800 28.0000 1.0000
43.3000 36.0000 1.0000
43.3200 31.0000 1.0000
43.3400 32.0000 1.0000
43.3600 29.0000 1.0000
43.3800 32.0000 1.0000
43.4000 28.0000 1.0000
43.4200 28.0000 1.0000
43.4400 27.0000 1.0000
43.4600 23.0000 1.0000
43.4800 28.0000 1.0000
43.5000 27.0000 1.0000
43.5200 40.0000 1.0000
43.5400 26.0000 1.0000
43.5600 32.0000 1.0000
43.5800 31.0000 1.0000
43.6000 29.0000 1.0000
43.6200 29.0000 1.0000
43.6400 23.0000 1.0000
43.6600 33.0000 1.0000
43.6800 23.0000 1.0000
43.7000 23.0000 1.0000
43.7200 31.0000 1.0000
43.7400 24.0000 1.0000
43.7600 30.0000 1.0000
43.7800 28.0000 1.0000
43.8000 30.0000 1.0000
43.8200 24.0000 1.0000
43.8400 19.0000 1.0000
43.8600 22.0000 1.0000
43.8800 29.0000 1.0000
43.9000 32.0000 1.0000
43.9200 27.0000 1.0000
43.9400 45.0000 1.0000
43.9600 23.0000 1.0000
43.9800 28.0000 1.0000
44.0000 27.0000 1.0000
44.0200 32.0000 1.0000
44.0400 33.0000 1.0000
44.0600 33.0000 1.0000
44.0800 28.0000 1.0000
44.1000 26.0000 1.0000
44.1200 24.0000 1.0000
44.1400 32.0000 1.0000
44.1600 18.0000 1.0000
44.1800 36.0000 1.0000
44.2000 28.0000 1.0000
44.2200 35.0000 1.0000
44.2400 28.0000 1.0000
44.2600 32.0000 1.0000
44.2800 24.0000 1.0000
44.3000 31.0000 1.0000
44.3200 22.0000 1.0000
44.3400 29.0000 1.0000
44.3600 26.0000 1.0000
44.3800 36.0000 1.0000
44.4000 25.0000 1.0000
44.4200 25.0000 1.0000
44.4400 31.0000 1.0000
44.4600 30.0000 1.0000
44.4800 30.0000 1.0000
44.5000 32.0000 1.0000
44.5200 26.0000 1.0000
44.5400 25.0000 1.0000
44.5600 34.0000 1.0000
44.5800 34.0000 1.0000
44.6000 19.0000 1.0000
44.6200 26.0000 1.0000
44.6400 27.0000 1.0000
44.6600 25.0000 1.0000
44.6800 30.0000 1.0000
44.7000 31.0000 1.0000
44.7200 23.0000 1.0000
44.7400 20.0000 1.0000
44.7600 23.0000 1.0000
44.7800 15.0000 1.0000
44.8000 29.0000 1.0000
44.8200 22.0000 1.0000
44.8400 23.0000 1.0000
44.8600 27.0000 1.0000
44.8800 27.0000 1.0000
44.9000 32.0000 1.0000
44.9200 29.0000 1.0000
44.9400 32.0000 1.0000
44.9600 26.0000 1.0000
44.9800 43.0000 1.0000
45.0000 32.0000 1.0000
45.0200 32.0000 1.0000
45.0400 47.0000 1.0000
45.0600 54.0000 1.0000
45.0800 53.0000 1.0000
45.1000 76.0000 1.0000
45.1200 75.0000 1.0000
45.1400 82.0000 1.0000
45.1600 89.0000 1.0000
45.1800 78.0000 1.0000
45.2000 76.0000 1.0000
45.2200 68.0000 1.0000
45.2400 68.0000 1.0000
45.2600 63.0000 1.0000
45.2800 62.0000 1.0000
45.3000 51.0000 1.0000
45.3200 45.0000 1.0000
45.3400 32.0000 1.0000
45.3600 28.0000 1.0000
45.3800 29.0000 1.0000
45.4000 33.0000 1.0000
45.4200 41.0000 1.0000
45.4400 21.0000 1.0000
45.4600 23.0000 1.0000
45.4800 21.0000 1.0000
45.5000 36.0000 1.0000
45.5200 26.0000 1.0000
45.5400 32.0000 1.0000
45.5600 32.0000 1.0000
45.5800 24.0000 1.0000
45.6000 20.0000 1.0000
45.6200 28.0000 1.0000
45.6400 30.0000 1.0000
45.6600 24.0000 1.0000
45.6800 21.0000 1.0000
45.7000 25.0000 1.0000
45.7200 18.0000 1.0000
45.7400 34.0000 1.0000
45.7600 21.0000 1.0000
45.7800 28.0000 1.0000
45.8000 26.0000 1.0000
45.8200 31.0000 1.0000
45.8400 22.0000 1.0000
45.8600 26.0000 1.0000
45.8800 28.0000 1.0000
45.9000 22.0000 1.0000
45.9200 37.0000 1.0000
45.9400 22.0000 1.0000
45.9600 33.0000 1.0000
45.9800 36.0000 1.0000
46.0000 35.0000 1.0000
46.0200 24.0000 1.0000
46.0400 34.0000 1.0000
46.0600 37.0000 1.0000
46.0800 38.0000 1.0000
46.1000 28.0000 1.0000
46.1200 36.0000 1.0000
46.1400 45.0000 1.0000
46.1600 42.0000 1.0000
46.1800 44.0000 1.0000
46.2000 65.0000 1.0000
46.2200 60.0000 1.0000
46.2400 57.0000 1.0000
46.2600 65.0000 1.0000
46.2800 56.0000 1.0000
46.3000 52.0000 1.0000
46.3200 66.0000 1.0000
46.3400 61.0000 1.0000
46.3600 64.0000 1.0000
46.3800 57.0000 1.0000
46.4000 62.0000 1.0000
46.4200 41.0000 1.0000
46.4400 52.0000 1.0000
46.4600 48.0000 1.0000
46.4800 42.0000 1.0000
46.5000 45.0000 1.0000
46.5200 29.0000 1.0000
46.5400 29.0000 1.0000
46.5600 34.0000 1.0000
46.5800 31.0000 1.0000
46.6000 30.0000 1.0000
46.6200 32.0000 1.0000
46.6400 33.0000 1.0000
46.6600 34.0000 1.0000
46.6800 43.0000 1.0000
46.7000 39.0000 1.0000
46.7200 32.0000 1.0000
46.7400 36.0000 1.0000
46.7600 29.0000 1.0000
46.7800 34.0000 1.0000
46.8000 33.0000 1.0000
46.8200 30.0000 1.0000
46.8400 30.0000 1.0000
46.8600 40.0000 1.0000
46.8800 45.0000 1.0000
46.9000 33.0000 1.0000
46.9200 35.0000 1.0000
46.9400 34.0000 1.0000
46.9600 37.0000 1.0000
46.9800 46.0000 1.0000
47.0000 27.0000 1.0000
47.0200 43.0000 1.0000
47.0400 60.0000 1.0000
47.0600 47.0000 1.0000
47.0800 39.0000 1.0000
47.1000 40.0000 1.0000
47.1200 52.0000 1.0000
47.1400 57.0000 1.0000
47.1600 58.0000 1.0000
47.1800 56.0000 1.0000
47.2000 81.0000 1.0000
47.2200 81.0000 1.0000
47.2400 56.0000 1.0000
47.2600 63.0000 1.0000
47.2800 83.0000 1.0000
47.3000 88.0000 1.0000
47.3200 88.0000 1.0000
47.3400 79.0000 1.0000
47.3600 98.0000 1.0000
47.3800 98.0000 1.0000
47.4000 113.0000 1.0000
47.4200 125.0000 1.0000
47.4400 128.0000 1.0000
47.4600 112.0000 1.0000
47.4800 140.0000 1.0000
47.5000 147.0000 1.0000
47.5200 138.0000 1.0000
47.5400 116.0000 1.0000
47.5600 134.0000 1.0000
47.5800 163.0000 1.0000
47.6000 155.0000 1.0000
47.6200 154.0000 1.0000
47.6400 134.0000 1.0000
47.6600 105.0000 1.0000
47.6800 107.0000 1.0000
47.7000 133.0000 1.0000
47.7200 119.0000 1.0000
47.7400 81.0000 1.0000
47.7600 90.0000 1.0000
47.7800 93.0000 1.0000
47.8000 83.0000 1.0000
47.8200 79.0000 1.0000
47.8400 75.0000 1.0000
47.8600 77.0000 1.0000
47.8800 52.0000 1.0000
47.9000 54.0000 1.0000
47.9200 66.0000 1.0000
47.9400 65.0000 1.0000
47.9600 53.0000 1.0000
47.9800 56.0000 1.0000
48.0000 49.0000 1.0000
48.0200 44.0000 1.0000
48.0400 49.0000 1.0000
48.0600 50.0000 1.0000
48.0800 56.0000 1.0000
48.1000 38.0000 1.0000
48.1200 52.0000 1.0000
48.1400 41.0000 1.0000
48.1600 39.0000 1.0000
48.1800 40.0000 1.0000
48.2000 34.0000 1.0000
48.2200 33.0000 1.0000
48.2400 45.0000 1.0000
48.2600 34.0000 1.0000
48.2800 31.0000 1.0000
48.3000 36.0000 1.0000
48.3200 46.0000 1.0000
48.3400 42.0000 1.0000
48.3600 36.0000 1.0000
48.3800 31.0000 1.0000
48.4000 37.0000 1.0000
48.4200 45.0000 1.0000
48.4400 33.0000 1.0000
48.4600 33.0000 1.0000
48.4800 40.0000 1.0000
48.5000 46.0000 1.0000
48.5200 27.0000 1.0000
48.5400 36.0000 1.0000
48.5600 31.0000 1.0000
48.5800 38.0000 1.0000
48.6000 29.0000 1.0000
48.6200 38.0000 1.0000
48.6400 27.0000 1.0000
48.6600 30.0000 1.0000
48.6800 35.0000 1.0000
48.7000 26.0000 1.0000
48.7200 43.0000 1.0000
48.7400 38.0000 1.0000
48.7600 44.0000 1.0000
48.7800 29.0000 1.0000
48.8000 30.0000 1.0000
48.8200 34.0000 1.0000
48.8400 38.0000 1.0000
48.8600 25.0000 1.0000
48.8800 37.0000 1.0000
48.9000 39.0000 1.0000
48.9200 28.0000 1.0000
48.9400 39.0000 1.0000
48.9600 29.0000 1.0000
48.9800 22.0000 1.0000
49.0000 28.0000 1.0000
49.0200 33.0000 1.0000
49.0400 19.0000 1.0000
49.0600 24.0000 1.0000
49.0800 27.0000 1.0000
49.1000 32.0000 1.0000
49.1200 20.0000 1.0000
49.1400 27.0000 1.0000
49.1600 31.0000 1.0000
49.1800 37.0000 1.0000
49.2000 29.0000 1.0000
49.2200 29.0000 1.0000
49.2400 32.0000 1.0000
49.2600 27.0000 1.0000
49.2800 20.0000 1.0000
49.3000 27.0000 1.0000
49.3200 23.0000 1.0000
49.3400 30.0000 1.0000
49.3600 28.0000 1.0000
49.3800 24.0000 1.0000
49.4000 30.0000 1.0000
49.4200 26.0000 1.0000
49.4400 33.0000 1.0000
49.4600 26.0000 1.0000
49.4800 27.0000 1.0000
49.5000 32.0000 1.0000
49.5200 24.0000 1.0000
49.5400 27.0000 1.0000
49.5600 28.0000 1.0000
49.5800 41.0000 1.0000
49.6000 31.0000 1.0000
49.6200 39.0000 1.0000
49.6400 40.0000 1.0000
49.6600 35.0000 1.0000
49.6800 45.0000 1.0000
49.7000 41.0000 1.0000
49.7200 42.0000 1.0000
49.7400 38.0000 1.0000
49.7600 24.0000 1.0000
49.7800 35.0000 1.0000
49.8000 26.0000 1.0000
49.8200 40.0000 1.0000
49.8400 28.0000 1.0000
49.8600 24.0000 1.0000
49.8800 32.0000 1.0000
49.9000 28.0000 1.0000
49.9200 27.0000 1.0000
49.9400 30.0000 1.0000
49.9600 24.0000 1.0000
49.9800 18.0000 1.0000
50.0000 26.0000 1.0000
50.0200 25.0000 1.0000
50.0400 19.0000 1.0000
50.0600 20.0000 1.0000
50.0800 24.0000 1.0000
50.1000 25.0000 1.0000
50.1200 28.0000 1.0000
50.1400 20.0000 1.0000
50.1600 34.0000 1.0000
50.1800 17.0000 1.0000
50.2000 20.0000 1.0000
50.2200 22.0000 1.0000
50.2400 35.0000 1.0000
50.2600 25.0000 1.0000
50.2800 19.0000 1.0000
50.3000 27.0000 1.0000
50.3200 26.0000 1.0000
50.3400 21.0000 1.0000
50.3600 30.0000 1.0000
50.3800 31.0000 1.0000
50.4000 26.0000 1.0000
50.4200 21.0000 1.0000
50.4400 26.0000 1.0000
50.4600 28.0000 1.0000
50.4800 37.0000 1.0000
50.5000 25.0000 1.0000
50.5200 32.0000 1.0000
50.5400 25.0000 1.0000
50.5600 33.0000 1.0000
50.5800 22.0000 1.0000
50.6000 26.0000 1.0000
50.6200 28.0000 1.0000
50.6400 38.0000 1.0000
50.6600 24.0000 1.0000
50.6800 24.0000 1.0000
50.7000 25.0000 1.0000
50.7200 20.0000 1.0000
50.7400 23.0000 1.0000
50.7600 28.0000 1.0000
50.7800 21.0000 1.0000
50.8000 20.0000 1.0000
50.8200 31.0000 1.0000
50.8400 26.0000 1.0000
50.8600 24.0000 1.0000
50.8800 23.0000 1.0000
50.9000 25.0000 1.0000
50.9200 25.0000 1.0000
50.9400 25.0000 1.0000
50.9600 31.0000 1.0000
50.9800 26.0000 1.0000
51.0000 31.0000 1.0000
51.0200 25.0000 1.0000
51.0400 21.0000 1.0000
51.0600 18.0000 1.0000
51.0800 19.0000 1.0000
51.1000 25.0000 1.0000
51.1200 31.0000 1.0000
51.1400 25.0000 1.0000
51.1600 27.0000 1.0000
51.1800 25.0000 1.0000
51.2000 33.0000 1.0000
51.2200 27.0000 1.0000
51.2400 24.0000 1.0000
51.2600 28.0000 1.0000
51.2800 29.0000 1.0000
51.3000 25.0000 1.0000
51.3200 18.0000 1.0000
51.3400 19.0000 1.0000
51.3600 21.0000 1.0000
51.3800 34.0000 1.0000
51.4000 20.0000 1.0000
51.4200 20.0000 1.0000
51.4400 35.0000 1.0000
51.4600 31.0000 1.0000
51.4800 27.0000 1.0000
51.5000 28.0000 1.0000
51.5200 22.0000 1.0000
51.5400 31.0000 1.0000
51.5600 32.0000 1.0000
51.5800 23.0000 1.0000
51.6000 18.0000 1.0000
51.6200 35.0000 1.0000
51.6400 28.0000 1.0000
51.6600 30.0000 1.0000
51.6800 25.0000 1.0000
51.7000 43.0000 1.0000
51.7200 39.0000 1.0000
51.7400 35.0000 1.0000
51.7600 30.0000 1.0000
51.7800 33.0000 1.0000
51.8000 31.0000 1.0000
51.8200 31.0000 1.0000
51.8400 26.0000 1.0000
51.8600 25.0000 1.0000
51.8800 20.0000 1.0000
51.9000 23.0000 1.0000
51.9200 26.0000 1.0000
51.9400 24.0000 1.0000
51.9600 33.0000 1.0000
51.9800 26.0000 1.0000
52.0000 32.0000 1.0000
52.0200 30.0000 1.0000
52.0400 26.0000 1.0000
52.0600 29.0000 1.0000
52.0800 24.0000 1.0000
52.1000 32.0000 1.0000
52.1200 27.0000 1.0000
52.1400 31.0000 1.0000
52.1600 31.0000 1.0000
52.1800 35.0000 1.0000
52.2000 37.0000 1.0000
52.2200 38.0000 1.0000
52.2400 40.0000 1.0000
52.2600 30.0000 1.0000
52.2800 43.0000 1.0000
52.3000 51.0000 1.0000
52.3200 43.0000 1.0000
52.3400 59.0000 1.0000
52.3600 49.0000 1.0000
52.3800 44.0000 1.0000
52.4000 47.0000 1.0000
52.4200 39.0000 1.0000
52.4400 47.0000 1.0000
52.4600 51.0000 1.0000
52.4800 50.0000 1.0000
52.5000 41.0000 1.0000
52.5200 37.0000 1.0000
52.5400 50.0000 1.0000
52.5600 30.0000 1.0000
52.5800 33.0000 1.0000
52.6000 32.0000 1.0000
52.6200 36.0000 1.0000
52.6400 43.0000 1.0000
52.6600 37.0000 1.0000
52.6800 35.0000 1.0000
52.7000 34.0000 1.0000
52.7200 30.0000 1.0000
52.7400 30.0000 1.0000
52.7600 33.0000 1.0000
52.7800 23.0000 1.0000
52.8000 44.0000 1.0000
52.8200 26.0000 1.0000
52.8400 30.0000 1.0000
52.8600 35.0000 1.0000
52.8800 34.0000 1.0000
52.9000 35.0000 1.0000
52.9200 39.0000 1.0000
52.9400 35.0000 1.0000
52.9600 31.0000 1.0000
52.9800 30.0000 1.0000
53.0000 25.0000 1.0000
53.0200 47.0000 1.0000
53.0400 57.0000 1.0000
53.0600 49.0000 1.0000
53.0800 59.0000 1.0000
53.1000 51.0000 1.0000
53.1200 78.0000 1.0000
53.1400 70.0000 1.0000
53.1600 70.0000 1.0000
53.1800 77.0000 1.0000
53.2000 74.0000 1.0000
53.2200 67.0000 1.0000
53.2400 68.0000 1.0000
53.2600 45.0000 1.0000
53.2800 40.0000 1.0000
53.3000 63.0000 1.0000
53.3200 54.0000 1.0000
53.3400 42.0000 1.0000
53.3600 54.0000 1.0000
53.3800 33.0000 1.0000
53.4000 37.0000 1.0000
53.4200 41.0000 1.0000
53.4400 22.0000 1.0000
53.4600 38.0000 1.0000
53.4800 40.0000 1.0000
53.5000 34.0000 1.0000
53.5200 26.0000 1.0000
53.5400 26.0000 1.0000
53.5600 33.0000 1.0000
53.5800 26.0000 1.0000
53.6000 27.0000 1.0000
53.6200 23.0000 1.0000
53.6400 32.0000 1.0000
53.6600 36.0000 1.0000
53.6800 34.0000 1.0000
53.7000 35.0000 1.0000
53.7200 35.0000 1.0000
53.7400 40.0000 1.0000
53.7600 34.0000 1.0000
53.7800 29.0000 1.0000
53.8000 32.0000 1.0000
53.8200 39.0000 1.0000
53.8400 37.0000 1.0000
53.8600 33.0000 1.0000
53.8800 43.0000 1.0000
53.9000 40.0000 1.0000
53.9200 51.0000 1.0000
53.9400 52.0000 1.0000
53.9600 57.0000 1.0000
53.9800 60.0000 1.0000
54.0000 54.0000 1.0000
54.0200 71.0000 1.0000
54.0400 59.0000 1.0000
54.0600 63.0000 1.0000
54.0800 50.0000 1.0000
54.1000 68.0000 1.0000
54.1200 64.0000 1.0000
54.1400 54.0000 1.0000
54.1600 54.0000 1.0000
54.1800 52.0000 1.0000
54.2000 52.0000 1.0000
54.2200 56.0000 1.0000
54.2400 36.0000 1.0000
54.2600 43.0000 1.0000
54.2800 34.0000 1.0000
54.3000 48.0000 1.0000
54.3200 47.0000 1.0000
54.3400 48.0000 1.0000
54.3600 26.0000 1.0000
54.3800 32.0000 1.0000
54.4000 34.0000 1.0000
54.4200 34.0000 1.0000
54.4400 37.0000 1.0000
54.4600 32.0000 1.0000
54.4800 28.0000 1.0000
54.5000 43.0000 1.0000
54.5200 41.0000 1.0000
54.5400 34.0000 1.0000
54.5600 42.0000 1.0000
54.5800 46.0000 1.0000
54.6000 38.0000 1.0000
54.6200 40.0000 1.0000
54.6400 37.0000 1.0000
54.6600 29.0000 1.0000
54.6800 42.0000 1.0000
54.7000 39.0000 1.0000
54.7200 51.0000 1.0000
54.7400 51.0000 1.0000
54.7600 54.0000 1.0000
54.7800 56.0000 1.0000
54.8000 60.0000 1.0000
54.8200 61.0000 1.0000
54.8400 61.0000 1.0000
54.8600 53.0000 1.0000
54.8800 47.0000 1.0000
54.9000 55.0000 1.0000
54.9200 56.0000 1.0000
54.9400 60.0000 1.0000
54.9600 42.0000 1.0000
54.9800 50.0000 1.0000
55.0000 43.0000 1.0000
55.0200 55.0000 1.0000
55.0400 43.0000 1.0000
55.0600 47.0000 1.0000
55.0800 35.0000 1.0000
55.1000 42.0000 1.0000
55.1200 33.0000 1.0000
55.1400 39.0000 1.0000
55.1600 61.0000 1.0000
55.1800 50.0000 1.0000
55.2000 47.0000 1.0000
55.2200 58.0000 1.0000
55.2400 63.0000 1.0000
55.2600 48.0000 1.0000
55.2800 56.0000 1.0000
55.3000 54.0000 1.0000
55.3200 69.0000 1.0000
55.3400 69.0000 1.0000
55.3600 73.0000 1.0000
55.3800 53.0000 1.0000
55.4000 73.0000 1.0000
55.4200 77.0000 1.0000
55.4400 80.0000 1.0000
55.4600 77.0000 1.0000
55.4800 96.0000 1.0000
55.5000 98.0000 1.0000
55.5200 103.0000 1.0000
55.5400 122.0000 1.0000
55.5600 125.0000 1.0000
55.5800 135.0000 1.0000
55.6000 144.0000 1.0000
55.6200 135.0000 1.0000
55.6400 145.0000 1.0000
55.6600 167.0000 1.0000
55.6800 180.0000 1.0000
55.7000 199.0000 1.0000
55.7200 199.0000 1.0000
55.7400 230.0000 1.0000
55.7600 251.0000 1.0000
55.7800 290.0000 1.0000
55.8000 295.0000 1.0000
55.8200 305.0000 1.0000
55.8400 327.0000 1.0000
55.8600 313.0000 1.0000
55.8800 348.0000 1.0000
55.9000 335.0000 1.0000
55.9200 371.0000 1.0000
55.9400 354.0000 1.0000
55.9600 290.0000 1.0000
55.9800 304.0000 1.0000
56.0000 293.0000 1.0000
56.0200 287.0000 1.0000
56.0400 265.0000 1.0000
56.0600 247.0000 1.0000
56.0800 222.0000 1.0000
56.1000 228.0000 1.0000
56.1200 195.0000 1.0000
56.1400 166.0000 1.0000
56.1600 164.0000 1.0000
56.1800 164.0000 1.0000
56.2000 141.0000 1.0000
56.2200 127.0000 1.0000
56.2400 106.0000 1.0000
56.2600 113.0000 1.0000
56.2800 106.0000 1.0000
56.3000 114.0000 1.0000
56.3200 101.0000 1.0000
56.3400 84.0000 1.0000
56.3600 83.0000 1.0000
56.3800 80.0000 1.0000
56.4000 72.0000 1.0000
56.4200 69.0000 1.0000
56.4400 64.0000 1.0000
56.4600 68.0000 1.0000
56.4800 72.0000 1.0000
56.5000 56.0000 1.0000
56.5200 74.0000 1.0000
56.5400 55.0000 1.0000
56.5600 59.0000 1.0000
56.5800 69.0000 1.0000
56.6000 47.0000 1.0000
56.6200 54.0000 1.0000
56.6400 46.0000 1.0000
56.6600 48.0000 1.0000
56.6800 49.0000 1.0000
56.7000 43.0000 1.0000
56.7200 54.0000 1.0000
56.7400 53.0000 1.0000
56.7600 39.0000 1.0000
56.7800 53.0000 1.0000
56.8000 40.0000 1.0000
56.8200 57.0000 1.0000
56.8400 60.0000 1.0000
56.8600 54.0000 1.0000
56.8800 49.0000 1.0000
56.9000 43.0000 1.0000
56.9200 50.0000 1.0000
56.9400 39.0000 1.0000
56.9600 38.0000 1.0000
56.9800 39.0000 1.0000
57.0000 50.0000 1.0000
57.0200 35.0000 1.0000
57.0400 37.0000 1.0000
57.0600 51.0000 1.0000
57.0800 42.0000 1.0000
57.1000 35.0000 1.0000
57.1200 42.0000 1.0000
57.1400 43.0000 1.0000
57.1600 33.0000 1.0000
57.1800 43.0000 1.0000
57.2000 43.0000 1.0000
57.2200 50.0000 1.0000
57.2400 46.0000 1.0000
57.2600 56.0000 1.0000
57.2800 53.0000 1.0000
57.3000 62.0000 1.0000
57.3200 48.0000 1.0000
57.3400 51.0000 1.0000
57.3600 57.0000 1.0000
57.3800 52.0000 1.0000
57.4000 59.0000 1.0000
57.4200 66.0000 1.0000
57.4400 55.0000 1.0000
57.4600 55.0000 1.0000
57.4800 50.0000 1.0000
57.5000 75.0000 1.0000
57.5200 77.0000 1.0000
57.5400 70.0000 1.0000
57.5600 64.0000 1.0000
57.5800 64.0000 1.0000
57.6000 80.0000 1.0000
57.6200 102.0000 1.0000
57.6400 96.0000 1.0000
57.6600 87.0000 1.0000
57.6800 88.0000 1.0000
57.7000 90.0000 1.0000
57.7200 90.0000 1.0000
57.7400 108.0000 1.0000
57.7600 109.0000 1.0000
57.7800 121.0000 1.0000
57.8000 116.0000 1.0000
57.8200 139.0000 1.0000
57.8400 134.0000 1.0000
57.8600 148.0000 1.0000
57.8800 189.0000 1.0000
57.9000 183.0000 1.0000
57.9200 208.0000 1.0000
57.9400 205.0000 1.0000
57.9600 239.0000 1.0000
57.9800 258.0000 1.0000
58.0000 263.0000 1.0000
58.0200 265.0000 1.0000
58.0400 269.0000 1.0000
58.0600 279.0000 1.0000
58.0800 279.0000 1.0000
58.1000 275.0000 1.0000
58.1200 297.0000 1.0000
58.1400 264.0000 1.0000
58.1600 292.0000 1.0000
58.1800 309.0000 1.0000
58.2000 291.0000 1.0000
58.2200 290.0000 1.0000
58.2400 256.0000 1.0000
58.2600 276.0000 1.0000
58.2800 243.0000 1.0000
58.3000 239.0000 1.0000
58.3200 223.0000 1.0000
58.3400 184.0000 1.0000
58.3600 196.0000 1.0000
58.3800 197.0000 1.0000
58.4000 200.0000 1.0000
58.4200 178.0000 1.0000
58.4400 140.0000 1.0000
58.4600 151.0000 1.0000
58.4800 138.0000 1.0000
58.5000 117.0000 1.0000
58.5200 100.0000 1.0000
58.5400 107.0000 1.0000
58.5600 110.0000 1.0000
58.5800 79.0000 1.0000
58.6000 79.0000 1.0000
58.6200 79.0000 1.0000
58.6400 87.0000 1.0000
58.6600 71.0000 1.0000
58.6800 64.0000 1.0000
58.7000 57.0000 1.0000
58.7200 59.0000 1.0000
58.7400 79.0000 1.0000
58.7600 59.0000 1.0000
58.7800 49.0000 1.0000
58.8000 65.0000 1.0000
58.8200 82.0000 1.0000
58.8400 54.0000 1.0000
58.8600 60.0000 1.0000
58.8800 47.0000 1.0000
58.9000 54.0000 1.0000
58.9200 62.0000 1.0000
58.9400 46.0000 1.0000
58.9600 50.0000 1.0000
58.9800 41.0000 1.0000
59.0000 48.0000 1.0000
59.0200 44.0000 1.0000
59.0400 53.0000 1.0000
59.0600 45.0000 1.0000
59.0800 39.0000 1.0000
59.1000 43.0000 1.0000
59.1200 25.0000 1.0000
59.1400 47.0000 1.0000
59.1600 45.0000 1.0000
59.1800 38.0000 1.0000
59.2000 26.0000 1.0000
59.2200 36.0000 1.0000
59.2400 31.0000 1.0000
59.2600 42.0000 1.0000
59.2800 42.0000 1.0000
59.3000 28.0000 1.0000
59.3200 41.0000 1.0000
59.3400 20.0000 1.0000
59.3600 43.0000 1.0000
59.3800 41.0000 1.0000
59.4000 35.0000 1.0000
59.4200 44.0000 1.0000
59.4400 48.0000 1.0000
59.4600 33.0000 1.0000
59.4800 38.0000 1.0000
59.5000 38.0000 1.0000
59.5200 48.0000 1.0000
59.5400 42.0000 1.0000
59.5600 46.0000 1.0000
59.5800 31.0000 1.0000
59.6000 39.0000 1.0000
59.6200 46.0000 1.0000
59.6400 37.0000 1.0000
59.6600 41.0000 1.0000
59.6800 36.0000 1.0000
59.7000 52.0000 1.0000
59.7200 41.0000 1.0000
59.7400 38.0000 1.0000
59.7600 41.0000 1.0000
59.7800 49.0000 1.0000
59.8000 32.0000 1.0000
59.8200 39.0000 1.0000
59.8400 44.0000 1.0000
59.8600 46.0000 1.0000
59.8800 57.0000 1.0000
59.9000 62.0000 1.0000
59.9200 47.0000 1.0000
59.9400 40.0000 1.0000
59.9600 50.0000 1.0000
59.9800 41.0000 1.0000
60.0000 54.0000 1.0000
60.0200 45.0000 1.0000
60.0400 41.0000 1.0000
60.0600 35.0000 1.0000
60.0800 50.0000 1.0000
60.1000 36.0000 1.0000
60.1200 47.0000 1.0000
60.1400 47.0000 1.0000
60.1600 30.0000 1.0000
60.1800 39.0000 1.0000
60.2000 30.0000 1.0000
60.2200 41.0000 1.0000
60.2400 33.0000 1.0000
60.2600 42.0000 1.0000
60.2800 35.0000 1.0000
60.3000 40.0000 1.0000
60.3200 35.0000 1.0000
60.3400 46.0000 1.0000
60.3600 43.0000 1.0000
60.3800 54.0000 1.0000
60.4000 34.0000 1.0000
60.4200 54.0000 1.0000
60.4400 46.0000 1.0000
60.4600 34.0000 1.0000
60.4800 40.0000 1.0000
60.5000 50.0000 1.0000
60.5200 61.0000 1.0000
60.5400 43.0000 1.0000
60.5600 50.0000 1.0000
60.5800 49.0000 1.0000
60.6000 44.0000 1.0000
60.6200 45.0000 1.0000
60.6400 43.0000 1.0000
60.6600 49.0000 1.0000
60.6800 48.0000 1.0000
60.7000 55.0000 1.0000
60.7200 42.0000 1.0000
60.7400 48.0000 1.0000
60.7600 52.0000 1.0000
60.7800 55.0000 1.0000
60.8000 68.0000 1.0000
60.8200 62.0000 1.0000
60.8400 59.0000 1.0000
60.8600 77.0000 1.0000
60.8800 58.0000 1.0000
60.9000 78.0000 1.0000
60.9200 63.0000 1.0000
60.9400 67.0000 1.0000
60.9600 85.0000 1.0000
60.9800 86.0000 1.0000
61.0000 102.0000 1.0000
61.0200 113.0000 1.0000
61.0400 111.0000 1.0000
61.0600 129.0000 1.0000
61.0800 129.0000 1.0000
61.1000 123.0000 1.0000
61.1200 151.0000 1.0000
61.1400 151.0000 1.0000
61.1600 183.0000 1.0000
61.1800 191.0000 1.0000
61.2000 178.0000 1.0000
61.2200 197.0000 1.0000
61.2400 219.0000 1.0000
61.2600 256.0000 1.0000
61.2800 262.0000 1.0000
61.3000 281.0000 1.0000
61.3200 245.0000 1.0000
61.3400 296.0000 1.0000
61.3600 290.0000 1.0000
61.3800 252.0000 1.0000
61.4000 271.0000 1.0000
61.4200 258.0000 1.0000
61.4400 259.0000 1.0000
61.4600 256.0000 1.0000
61.4800 214.0000 1.0000
61.5000 216.0000 1.0000
61.5200 195.0000 1.0000
61.5400 197.0000 1.0000
61.5600 170.0000 1.0000
61.5800 165.0000 1.0000
61.6000 168.0000 1.0000
61.6200 129.0000 1.0000
61.6400 123.0000 1.0000
61.6600 94.0000 1.0000
61.6800 108.0000 1.0000
61.7000 92.0000 1.0000
61.7200 91.0000 1.0000
61.7400 98.0000 1.0000
61.7600 92.0000 1.0000
61.7800 108.0000 1.0000
61.8000 80.0000 1.0000
61.8200 74.0000 1.0000
61.8400 63.0000 1.0000
61.8600 59.0000 1.0000
61.8800 67.0000 1.0000
61.9000 62.0000 1.0000
61.9200 52.0000 1.0000
61.9400 57.0000 1.0000
61.9600 60.0000 1.0000
61.9800 63.0000 1.0000
62.0000 53.0000 1.0000
62.0200 54.0000 1.0000
62.0400 59.0000 1.0000
62.0600 52.0000 1.0000
62.0800 61.0000 1.0000
62.1000 42.0000 1.0000
62.1200 37.0000 1.0000
62.1400 43.0000 1.0000
62.1600 45.0000 1.0000
62.1800 45.0000 1.0000
62.2000 53.0000 1.0000
62.2200 41.0000 1.0000
62.2400 44.0000 1.0000
62.2600 41.0000 1.0000
62.2800 46.0000 1.0000
62.3000 38.0000 1.0000
62.3200 39.0000 1.0000
62.3400 39.0000 1.0000
62.3600 42.0000 1.0000
62.3800 31.0000 1.0000
62.4000 48.0000 1.0000
62.4200 25.0000 1.0000
62.4400 31.0000 1.0000
62.4600 35.0000 1.0000
62.4800 29.0000 1.0000
62.5000 35.0000 1.0000
62.5200 38.0000 1.0000
62.5400 34.0000 1.0000
62.5600 26.0000 1.0000
62.5800 24.0000 1.0000
62.6000 34.0000 1.0000
62.6200 34.0000 1.0000
62.6400 39.0000 1.0000
62.6600 25.0000 1.0000
62.6800 25.0000 1.0000
62.7000 28.0000 1.0000
62.7200 36.0000 1.0000
62.7400 40.0000 1.0000
62.7600 35.0000 1.0000
62.7800 28.0000 1.0000
62.8000 33.0000 1.0000
62.8200 36.0000 1.0000
62.8400 21.0000 1.0000
62.8600 29.0000 1.0000
62.8800 19.0000 1.0000
62.9000 34.0000 1.0000
62.9200 33.0000 1.0000
62.9400 26.0000 1.0000
62.9600 39.0000 1.0000
62.9800 31.0000 1.0000
63.0000 29.0000 1.0000
63.0200 31.0000 1.0000
63.0400 30.0000 1.0000
63.0600 26.0000 1.0000
63.0800 37.0000 1.0000
63.1000 28.0000 1.0000
63.1200 26.0000 1.0000
63.1400 20.0000 1.0000
63.1600 18.0000 1.0000
63.1800 22.0000 1.0000
63.2000 29.0000 1.0000
63.2200 32.0000 1.0000
63.2400 26.0000 1.0000
63.2600 31.0000 1.0000
63.2800 36.0000 1.0000
63.3000 19.0000 1.0000
63.3200 27.0000 1.0000
63.3400 30.0000 1.0000
63.3600 27.0000 1.0000
63.3800 27.0000 1.0000
63.4000 24.0000 1.0000
63.4200 28.0000 1.0000
63.4400 26.0000 1.0000
63.4600 29.0000 1.0000
63.4800 26.0000 1.0000
63.5000 30.0000 1.0000
63.5200 29.0000 1.0000
63.5400 31.0000 1.0000
63.5600 39.0000 1.0000
63.5800 41.0000 1.0000
63.6000 29.0000 1.0000
63.6200 25.0000 1.0000
63.6400 35.0000 1.0000
63.6600 24.0000 1.0000
63.6800 32.0000 1.0000
63.7000 29.0000 1.0000
63.7200 26.0000 1.0000
63.7400 27.0000 1.0000
63.7600 27.0000 1.0000
63.7800 30.0000 1.0000
63.8000 25.0000 1.0000
63.8200 19.0000 1.0000
63.8400 30.0000 1.0000
63.8600 17.0000 1.0000
63.8800 26.0000 1.0000
63.9000 18.0000 1.0000
63.9200 29.0000 1.0000
63.9400 26.0000 1.0000
63.9600 32.0000 1.0000
63.9800 21.0000 1.0000
64.0000 19.0000 1.0000
64.0200 31.0000 1.0000
64.0400 24.0000 1.0000
64.0600 31.0000 1.0000
64.0800 24.0000 1.0000
64.1000 24.0000 1.0000
64.1200 21.0000 1.0000
64.1400 28.0000 1.0000
64.1600 23.0000 1.0000
64.1800 33.0000 1.0000
64.2000 35.0000 1.0000
64.2200 25.0000 1.0000
64.2400 24.0000 1.0000
64.2600 27.0000 1.0000
64.2800 41.0000 1.0000
64.3000 25.0000 1.0000
64.3200 39.0000 1.0000
64.3400 27.0000 1.0000
64.3600 23.0000 1.0000
64.3800 31.0000 1.0000
64.4000 29.0000 1.0000
64.4200 21.0000 1.0000
64.4400 31.0000 1.0000
64.4600 29.0000 1.0000
64.4800 29.0000 1.0000
64.5000 25.0000 1.0000
64.5200 29.0000 1.0000
64.5400 31.0000 1.0000
64.5600 27.0000 1.0000
64.5800 31.0000 1.0000
64.6000 29.0000 1.0000
64.6200 26.0000 1.0000
64.6400 37.0000 1.0000
64.6600 31.0000 1.0000
64.6800 37.0000 1.0000
64.7000 33.0000 1.0000
64.7200 29.0000 1.0000
64.7400 34.0000 1.0000
64.7600 40.0000 1.0000
64.7800 34.0000 1.0000
64.8000 36.0000 1.0000
64.8200 32.0000 1.0000
64.8400 30.0000 1.0000
64.8600 37.0000 1.0000
64.8800 46.0000 1.0000
64.9000 51.0000 1.0000
64.9200 54.0000 1.0000
64.9400 39.0000 1.0000
64.9600 51.0000 1.0000
64.9800 45.0000 1.0000
65.0000 45.0000 1.0000
65.0200 39.0000 1.0000
65.0400 42.0000 1.0000
65.0600 56.0000 1.0000
65.0800 54.0000 1.0000
65.1000 60.0000 1.0000
65.1200 58.0000 1.0000
65.1400 86.0000 1.0000
65.1600 65.0000 1.0000
65.1800 69.0000 1.0000
65.2000 61.0000 1.0000
65.2200 74.0000 1.0000
65.2400 77.0000 1.0000
65.2600 87.0000 1.0000
65.2800 77.0000 1.0000
65.3000 85.0000 1.0000
65.3200 76.0000 1.0000
65.3400 91.0000 1.0000
65.3600 88.0000 1.0000
65.3800 106.0000 1.0000
65.4000 122.0000 1.0000
65.4200 117.0000 1.0000
65.4400 141.0000 1.0000
65.4600 150.0000 1.0000
65.4800 136.0000 1.0000
65.5000 132.0000 1.0000
65.5200 130.0000 1.0000
65.5400 140.0000 1.0000
65.5600 131.0000 1.0000
65.5800 132.0000 1.0000
65.6000 136.0000 1.0000
65.6200 142.0000 1.0000
65.6400 115.0000 1.0000
65.6600 117.0000 1.0000
65.6800 137.0000 1.0000
65.7000 105.0000 1.0000
65.7200 115.0000 1.0000
65.7400 116.0000 1.0000
65.7600 96.0000 1.0000
65.7800 85.0000 1.0000
65.8000 86.0000 1.0000
65.8200 91.0000 1.0000
65.8400 58.0000 1.0000
65.8600 80.0000 1.0000
65.8800 66.0000 1.0000
65.9000 66.0000 1.0000
65.9200 63.0000 1.0000
65.9400 54.0000 1.0000
65.9600 66.0000 1.0000
65.9800 66.0000 1.0000
66.0000 43.0000 1.0000
66.0200 51.0000 1.0000
66.0400 42.0000 1.0000
66.0600 54.0000 1.0000
66.0800 37.0000 1.0000
66.1000 39.0000 1.0000
66.1200 41.0000 1.0000
66.1400 36.0000 1.0000
66.1600 38.0000 1.0000
66.1800 42.0000 1.0000
66.2000 36.0000 1.0000
66.2200 49.0000 1.0000
66.2400 27.0000 1.0000
66.2600 26.0000 1.0000
66.2800 28.0000 1.0000
66.3000 42.0000 1.0000
66.3200 31.0000 1.0000
66.3400 31.0000 1.0000
66.3600 41.0000 1.0000
66.3800 31.0000 1.0000
66.4000 40.0000 1.0000
66.4200 39.0000 1.0000
66.4400 34.0000 1.0000
66.4600 30.0000 1.0000
66.4800 31.0000 1.0000
66.5000 33.0000 1.0000
66.5200 29.0000 1.0000
66.5400 31.0000 1.0000
66.5600 32.0000 1.0000
66.5800 23.0000 1.0000
66.6000 32.0000 1.0000
66.6200 26.0000 1.0000
66.6400 33.0000 1.0000
66.6600 34.0000 1.0000
66.6800 31.0000 1.0000
66.7000 26.0000 1.0000
66.7200 33.0000 1.0000
66.7400 33.0000 1.0000
66.7600 28.0000 1.0000
66.7800 26.0000 1.0000
66.8000 18.0000 1.0000
66.8200 24.0000 1.0000
66.8400 44.0000 1.0000
66.8600 31.0000 1.0000
66.8800 30.0000 1.0000
66.9000 28.0000 1.0000
66.9200 23.0000 1.0000
66.9400 31.0000 1.0000
66.9600 20.0000 1.0000
66.9800 28.0000 1.0000
67.0000 25.0000 1.0000
67.0200 31.0000 1.0000
67.0400 29.0000 1.0000
67.0600 28.0000 1.0000
67.0800 24.0000 1.0000
67.1000 23.0000 1.0000
67.1200 28.0000 1.0000
67.1400 31.0000 1.0000
67.1600 24.0000 1.0000
67.1800 28.0000 1.0000
67.2000 34.0000 1.0000
67.2200 24.0000 1.0000
67.2400 25.0000 1.0000
67.2600 25.0000 1.0000
67.2800 25.0000 1.0000
67.3000 28.0000 1.0000
67.3200 24.0000 1.0000
67.3400 25.0000 1.0000
67.3600 31.0000 1.0000
67.3800 21.0000 1.0000
67.4000 23.0000 1.0000
67.4200 26.0000 1.0000
67.4400 31.0000 1.0000
67.4600 21.0000 1.0000
67.4800 26.0000 1.0000
67.5000 21.0000 1.0000
67.5200 21.0000 1.0000
67.5400 28.0000 1.0000
67.5600 29.0000 1.0000
67.5800 27.0000 1.0000
67.6000 21.0000 1.0000
67.6200 15.0000 1.0000
67.6400 36.0000 1.0000
67.6600 28.0000 1.0000
67.6800 27.0000 1.0000
67.7000 29.0000 1.0000
67.7200 24.0000 1.0000
67.7400 34.0000 1.0000
67.7600 24.0000 1.0000
67.7800 28.0000 1.0000
67.8000 22.0000 1.0000
67.8200 22.0000 1.0000
67.8400 20.0000 1.0000
67.8600 21.0000 1.0000
67.8800 24.0000 1.0000
67.9000 26.0000 1.0000
67.9200 24.0000 1.0000
67.9400 37.0000 1.0000
67.9600 26.0000 1.0000
67.9800 26.0000 1.0000
68.0000 23.0000 1.0000
68.0200 23.0000 1.0000
68.0400 29.0000 1.0000
68.0600 19.0000 1.0000
68.0800 34.0000 1.0000
68.1000 29.0000 1.0000
68.1200 23.0000 1.0000
68.1400 23.0000 1.0000
68.1600 21.0000 1.0000
68.1800 21.0000 1.0000
68.2000 33.0000 1.0000
68.2200 27.0000 1.0000
68.2400 23.0000 1.0000
68.2600 23.0000 1.0000
68.2800 21.0000 1.0000
68.3000 17.0000 1.0000
68.3200 23.0000 1.0000
68.3400 26.0000 1.0000
68.3600 35.0000 1.0000
68.3800 22.0000 1.0000
68.4000 17.0000 1.0000
68.4200 23.0000 1.0000
68.4400 32.0000 1.0000
68.4600 31.0000 1.0000
68.4800 22.0000 1.0000
68.5000 26.0000 1.0000
68.5200 25.0000 1.0000
68.5400 37.0000 1.0000
68.5600 31.0000 1.0000
68.5800 35.0000 1.0000
68.6000 34.0000 1.0000
68.6200 39.0000 1.0000
68.6400 31.0000 1.0000
68.6600 37.0000 1.0000
68.6800 34.0000 1.0000
68.7000 22.0000 1.0000
68.7200 35.0000 1.0000
68.7400 32.0000 1.0000
68.7600 35.0000 1.0000
68.7800 27.0000 1.0000
68.8000 30.0000 1.0000
68.8200 28.0000 1.0000
68.8400 35.0000 1.0000
68.8600 36.0000 1.0000
68.8800 30.0000 1.0000
68.9000 26.0000 1.0000
68.9200 29.0000 1.0000
68.9400 30.0000 1.0000
68.9600 27.0000 1.0000
68.9800 31.0000 1.0000
69.0000 37.0000 1.0000
69.0200 38.0000 1.0000
69.0400 28.0000 1.0000
69.0600 30.0000 1.0000
69.0800 16.0000 1.0000
69.1000 35.0000 1.0000
69.1200 30.0000 1.0000
69.1400 32.0000 1.0000
69.1600 23.0000 1.0000
69.1800 29.0000 1.0000
69.2000 27.0000 1.0000
69.2200 31.0000 1.0000
69.2400 22.0000 1.0000
69.2600 20.0000 1.0000
69.2800 23.0000 1.0000
69.3000 27.0000 1.0000
69.3200 45.0000 1.0000
69.3400 32.0000 1.0000
69.3600 30.0000 1.0000
69.3800 23.0000 1.0000
69.4000 24.0000 1.0000
69.4200 35.0000 1.0000
69.4400 24.0000 1.0000
69.4600 26.0000 1.0000
69.4800 32.0000 1.0000
69.5000 30.0000 1.0000
69.5200 37.0000 1.0000
69.5400 28.0000 1.0000
69.5600 43.0000 1.0000
69.5800 16.0000 1.0000
69.6000 34.0000 1.0000
69.6200 39.0000 1.0000
69.6400 29.0000 1.0000
69.6600 48.0000 1.0000
69.6800 35.0000 1.0000
69.7000 41.0000 1.0000
69.7200 44.0000 1.0000
69.7400 50.0000 1.0000
69.7600 38.0000 1.0000
69.7800 39.0000 1.0000
69.8000 37.0000 1.0000
69.8200 39.0000 1.0000
69.8400 47.0000 1.0000
69.8600 58.0000 1.0000
69.8800 42.0000 1.0000
69.9000 40.0000 1.0000
69.9200 44.0000 1.0000
69.9400 47.0000 1.0000
69.9600 58.0000 1.0000
69.9800 58.0000 1.0000
70.0000 55.0000 1.0000
*RAS_INT_END
*RAS_DATA_END
